#  Wav (A)    log gf    E (l, u) (eV)    rad    stark  waals
   697.52800  -1.980   0.0000  17.7750   0.00   0.00   0.00
   697.52800  -2.714   0.0000  17.7750   0.00   0.00   0.00
   697.52800  -3.880   0.0000  17.7750   0.00   0.00   0.00
   698.29900  -2.238   0.0196  17.7750   0.00   0.00   0.00
   698.29900  -2.706   0.0196  17.7750   0.00   0.00   0.00
   698.63400  -2.583   0.0281  17.7750   0.00   0.00   0.00
   724.83500  -1.596   0.0000  17.1053   0.00   0.00   0.00
   724.83500  -2.329   0.0000  17.1053   0.00   0.00   0.00
   724.83500  -3.496   0.0000  17.1053   0.00   0.00   0.00
   725.66700  -1.856   0.0196  17.1053   0.00   0.00   0.00
   725.66700  -2.322   0.0196  17.1053   0.00   0.00   0.00
   726.02900  -2.200   0.0281  17.1053   0.00   0.00   0.00
   748.35456  -1.950   0.0000  16.5677   0.00   0.00   0.00
   748.37976  -3.300   0.0000  16.5672   0.00   0.00   0.00
   749.24195  -3.930   0.0196  16.5677   0.00   0.00   0.00
   749.26721  -2.060   0.0196  16.5672   0.00   0.00   0.00
   749.62787  -4.440   0.0281  16.5677   0.00   0.00   0.00
   755.76536  -2.590   0.0000  16.4053   0.00   0.00   0.00
   755.79449  -1.790   0.0000  16.4047   0.00   0.00   0.00
   756.67042  -2.300   0.0196  16.4053   0.00   0.00   0.00
   756.69962  -2.630   0.0196  16.4047   0.00   0.00   0.00
   757.06403  -2.440   0.0281  16.4053   0.00   0.00   0.00
   769.35300  -1.628   0.0000  16.1156   0.00   0.00   0.00
   769.40800  -1.151   0.0000  16.1144   0.00   0.00   0.00
   770.26000  -1.727   0.0196  16.1162   0.00   0.00   0.00
   770.29100  -1.850   0.0196  16.1156   0.00   0.00   0.00
   770.34600  -1.628   0.0196  16.1144   0.00   0.00   0.00
   770.69900  -1.726   0.0281  16.1156   0.00   0.00   0.00
   770.78983  -3.260   0.0000  16.0855   0.00   0.00   0.00
   770.79300  -2.162   0.0000  16.0855   0.00   0.00   0.00
   770.99200  -3.889   0.0000  16.0813   0.00   0.00   0.00
   771.02500  -2.708   0.0000  16.0806   0.00   0.00   0.00
   771.05600  -1.952   0.0000  16.0800   0.00   0.00   0.00
   771.73400  -2.385   0.0196  16.0855   0.00   0.00   0.00
   771.93400  -2.715   0.0196  16.0813   0.00   0.00   0.00
   771.96700  -2.233   0.0196  16.0806   0.00   0.00   0.00
   772.05612  -4.440   0.0196  16.0788   0.00   0.00   0.00
   772.14300  -2.862   0.0281  16.0855   0.00   0.00   0.00
   772.34400  -2.590   0.0281  16.0813   0.00   0.00   0.00
   791.51400  -1.111   0.0000  15.6644   0.00   0.00   0.00
   791.97300  -0.634   0.0000  15.6553   0.00   0.00   0.00
   792.23300  -1.208   0.0196  15.6698   0.00   0.00   0.00
   792.50600  -1.334   0.0196  15.6644   0.00   0.00   0.00
   792.93800  -1.208   0.0281  15.6644   0.00   0.00   0.00
   792.96700  -1.112   0.0196  15.6553   0.00   0.00   0.00
   804.27000  -1.690   0.0000  15.4159   0.00   0.00   0.00
   804.33195  -2.590   0.0000  15.4147   0.00   0.00   0.00
   804.38114  -1.810   0.0000  15.4138   0.00   0.00   0.00
   804.73800  -3.453   0.0000  15.4069   0.00   0.00   0.00
   804.77900  -2.272   0.0000  15.4062   0.00   0.00   0.00
   804.81002  -1.840   0.0000  15.4056   0.00   0.00   0.00
   804.84800  -1.517   0.0000  15.4048   0.00   0.00   0.00
   804.99666  -1.330   0.0000  15.4020   0.00   0.00   0.00
   805.02966  -1.340   0.0000  15.4014   0.00   0.00   0.00
   805.29500  -1.911   0.0196  15.4159   0.00   0.00   0.00
   805.40647  -3.340   0.0196  15.4138   0.00   0.00   0.00
   805.74100  -2.389   0.0281  15.4159   0.00   0.00   0.00
   805.76500  -2.279   0.0196  15.4069   0.00   0.00   0.00
   805.80500  -1.796   0.0196  15.4062   0.00   0.00   0.00
   805.90366  -1.710   0.0196  15.4043   0.00   0.00   0.00
   806.02356  -2.380   0.0196  15.4020   0.00   0.00   0.00
   806.21100  -2.154   0.0281  15.4069   0.00   0.00   0.00
   810.66500  -2.393   0.0000  15.2943   7.90   0.00   0.00
   811.05100  -1.916   0.0000  15.2870   7.89   0.00   0.00
   811.49700  -2.491   0.0196  15.2982   7.90   0.00   0.00
   811.70600  -2.616   0.0196  15.2943   7.90   0.00   0.00
   812.09400  -2.395   0.0196  15.2870   7.89   0.00   0.00
   812.15900  -2.490   0.0281  15.2943   7.90   0.00   0.00
   816.72000  -3.311   0.0000  15.1809   0.00   0.00   0.00
   816.77200  -2.134   0.0000  15.1799   0.00   0.00   0.00
   816.86200  -1.385   0.0000  15.1783   0.00   0.00   0.00
   817.77700  -2.134   0.0196  15.1809   0.00   0.00   0.00
   817.82900  -1.656   0.0196  15.1799   0.00   0.00   0.00
   818.23700  -2.009   0.0281  15.1809   0.00   0.00   0.00
   839.82700  -2.081   1.9674  16.7306   0.00   0.00   0.00
   839.82700  -2.264   1.9674  16.7306   0.00   0.00   0.00
   843.58900  -1.915   1.9674  16.6648   0.00   0.00   0.00
   843.58900  -2.094   1.9674  16.6648   0.00   0.00   0.00
   844.33000  -2.314   1.9674  16.6519   0.00   0.00   0.00
   849.19460  -3.600   1.9674  16.5677   0.00   0.00   0.00
   849.22706  -2.480   1.9674  16.5672   0.00   0.00   0.00
   849.45100  -1.725   1.9674  16.5633   0.00   0.00   0.00
   849.48000  -1.900   1.9674  16.5628   0.00   0.00   0.00
   850.67900  -2.101   1.9674  16.5423   0.00   0.00   0.00
   858.74991  -4.200   1.9674  16.4053   0.00   0.00   0.00
   858.78752  -3.160   1.9674  16.4047   0.00   0.00   0.00
   859.31200  -1.502   1.9674  16.3958   0.00   0.00   0.00
   859.34900  -1.675   1.9674  16.3952   0.00   0.00   0.00
   859.58600  -2.437   1.9674  16.3913   0.00   0.00   0.00
   861.56300  -1.843   1.9674  16.3581   0.00   0.00   0.00
   876.33570  -2.640   1.9674  16.1156   0.00   0.00   0.00
   876.40777  -4.340   1.9674  16.1144   0.00   0.00   0.00
   877.79800  -1.005   0.0000  14.1246   8.51   0.00   0.00
   877.87900  -0.529   0.0000  14.1233   8.50   0.00   0.00
   878.20100  -1.244   1.9674  16.0855   0.00   0.00   0.00
   878.24700  -1.413   1.9674  16.0848   0.00   0.00   0.00
   878.53679  -4.090   1.9674  16.0801   0.00   0.00   0.00
   878.61800  -2.229   1.9674  16.0788   0.00   0.00   0.00
   878.97200  -1.103   0.0196  14.1254   8.51   0.00   0.00
   879.01900  -1.229   0.0196  14.1246   8.51   0.00   0.00
   879.10000  -1.007   0.0196  14.1233   8.50   0.00   0.00
   879.55100  -1.104   0.0281  14.1246   8.51   0.00   0.00
   882.88900  -1.516   1.9674  16.0105   0.00   0.00   0.00
   905.20377  -4.970   1.9674  15.6644   0.00   0.00   0.00
   905.80503  -4.260   1.9674  15.6553   0.00   0.00   0.00
   919.65778  -2.400   0.0000  13.4817   0.00   0.00   0.00
   919.65778  -4.330   0.0000  13.4817   0.00   0.00   0.00
   919.65778  -3.150   0.0000  13.4817   0.00   0.00   0.00
   920.99829  -2.670   0.0196  13.4817   0.00   0.00   0.00
   920.99829  -3.150   0.0196  13.4817   0.00   0.00   0.00
   921.58150  -3.020   0.0281  13.4817   0.00   0.00   0.00
   921.85695  -3.050   0.0000  13.4495   0.00   0.00   0.00
   921.85695  -4.230   0.0000  13.4495   0.00   0.00   0.00
   921.85695  -2.300   0.0000  13.4495   0.00   0.00   0.00
   922.00800  -0.960   1.9674  15.4147   7.95   0.00   0.00
   922.07300  -1.127   1.9674  15.4138   0.00   0.00   0.00
   922.45700  -2.107   1.9674  15.4082   0.00   0.00   0.00
   922.63635  -1.830   1.9674  15.4056   0.00   0.00   0.00
   922.88165  -1.570   1.9674  15.4020   0.00   0.00   0.00
   922.92503  -1.740   1.9674  15.4014   0.00   0.00   0.00
   923.20388  -3.050   0.0196  13.4495   0.00   0.00   0.00
   923.20388  -2.570   0.0196  13.4495   0.00   0.00   0.00
   923.78989  -2.930   0.0281  13.4495   0.00   0.00   0.00
   924.95000  -2.188   0.0000  13.4046   0.00   0.00   0.00
   924.95000  -2.935   0.0000  13.4046   0.00   0.00   0.00
   924.95000  -4.112   0.0000  13.4046   0.00   0.00   0.00
   926.30600  -2.460   0.0196  13.4046   0.00   0.00   0.00
   926.30600  -2.936   0.0196  13.4046   0.00   0.00   0.00
   926.89600  -2.812   0.0281  13.4046   0.00   0.00   0.00
   929.51700  -2.017   0.0000  13.3387   0.00   0.00   0.00
   929.51700  -2.764   0.0000  13.3387   0.00   0.00   0.00
   929.51700  -3.939   0.0000  13.3387   0.00   0.00   0.00
   930.25700  -2.571   0.0000  13.3281   0.00   0.00   0.00
   930.33944  -3.550   1.9674  15.2943   0.00   0.00   0.00
   930.84809  -4.610   1.9674  15.2870   0.00   0.00   0.00
   930.88600  -2.287   0.0196  13.3387   0.00   0.00   0.00
   930.88600  -2.764   0.0196  13.3387   0.00   0.00   0.00
   931.48200  -2.639   0.0281  13.3387   0.00   0.00   0.00
   931.62800  -2.794   0.0196  13.3281   0.00   0.00   0.00
   932.22500  -3.271   0.0281  13.3281   0.00   0.00   0.00
   935.19300  -1.060   1.9674  15.2251   0.00   0.00   0.00
   936.62900  -1.816   0.0000  13.2374   0.00   0.00   0.00
   936.62900  -2.564   0.0000  13.2374   0.00   0.00   0.00
   936.62900  -3.740   0.0000  13.2374   0.00   0.00   0.00
   936.75510  -4.760   0.0000  13.2356   0.00   0.00   0.00
   936.75522  -3.040   0.0000  13.2356   0.00   0.00   0.00
   936.75536  -1.970   0.0000  13.2356   0.00   0.00   0.00
   937.84100  -2.357   0.0000  13.2203   0.00   0.00   0.00
   938.02000  -2.087   0.0196  13.2374   0.00   0.00   0.00
   938.02000  -2.565   0.0196  13.2374   0.00   0.00   0.00
   938.14589  -6.830   0.0196  13.2356   0.00   0.00   0.00
   938.14595  -3.530   0.0196  13.2356   0.00   0.00   0.00
   938.14607  -2.550   0.0196  13.2356   0.00   0.00   0.00
   938.62500  -2.440   0.0281  13.2374   0.00   0.00   0.00
   938.75109  -3.380   0.0281  13.2356   0.00   0.00   0.00
   939.23500  -2.580   0.0196  13.2203   0.00   0.00   0.00
   939.84100  -3.057   0.0281  13.2203   0.00   0.00   0.00
   948.68600  -1.576   0.0000  13.0692   0.00   0.00   0.00
   948.68600  -2.325   0.0000  13.0692   0.00   0.00   0.00
   948.68600  -3.501   0.0000  13.0692   0.00   0.00   0.00
   948.89772  -6.770   0.0000  13.0663   0.00   0.00   0.00
   948.89796  -6.630   0.0000  13.0663   0.00   0.00   0.00
   950.11200  -1.847   0.0196  13.0692   0.00   0.00   0.00
   950.11200  -2.327   0.0196  13.0692   0.00   0.00   0.00
   950.32478  -6.780   0.0196  13.0663   0.00   0.00   0.00
   950.32489  -7.050   0.0196  13.0663   0.00   0.00   0.00
   950.32514  -7.060   0.0196  13.0663   0.00   0.00   0.00
   950.73300  -2.201   0.0281  13.0692   0.00   0.00   0.00
   950.88500  -2.103   0.0000  13.0390   0.00   0.00   0.00
   950.94585  -6.890   0.0281  13.0663   0.00   0.00   0.00
   952.31800  -2.325   0.0196  13.0390   0.00   0.00   0.00
   952.94100  -2.803   0.0281  13.0390   0.00   0.00   0.00
   971.73700  -3.162   0.0000  12.7592   0.00   0.00   0.00
   971.73800  -1.237   0.0000  12.7591   0.00   0.00   0.00
   971.73800  -1.986   0.0000  12.7592   0.00   0.00   0.00
   972.14177  -5.650   0.0000  12.7538   0.00   0.00   0.00
   972.14223  -3.810   0.0000  12.7538   0.00   0.00   0.00
   972.14279  -2.800   0.0000  12.7538   0.00   0.00   0.00
   973.23400  -1.508   0.0196  12.7592   0.00   0.00   0.00
   973.23400  -1.987   0.0196  12.7592   0.00   0.00   0.00
   973.63955  -6.550   0.0196  12.7539   0.00   0.00   0.00
   973.63977  -4.260   0.0196  12.7538   0.00   0.00   0.00
   973.64024  -3.280   0.0196  12.7538   0.00   0.00   0.00
   973.88500  -1.861   0.0281  12.7592   0.00   0.00   0.00
   974.07000  -4.107   0.0000  12.7286   0.00   0.00   0.00
   974.29158  -4.050   0.0281  12.7538   0.00   0.00   0.00
   975.57400  -4.800   0.0196  12.7286   0.00   0.00   0.00
   976.44800  -1.781   0.0000  12.6976   0.00   0.00   0.00
   977.95900  -2.005   0.0196  12.6976   0.00   0.00   0.00
   978.61700  -2.482   0.0281  12.6976   0.00   0.00   0.00
   988.57800  -2.546   0.0000  12.5418   8.40  -5.73   0.00
   988.65500  -1.374   0.0000  12.5408   8.41  -5.73   0.00
   988.77300  -0.635   0.0000  12.5393   8.41  -5.73   0.00
   990.12700  -1.379   0.0196  12.5418   8.40  -5.73   0.00
   990.20400  -0.908   0.0196  12.5408   8.41  -5.73   0.00
   990.80100  -1.258   0.0281  12.5418   8.40  -5.73   0.00
   999.49700  -0.643   1.9674  14.3722   8.77   0.00   0.00
  1025.76200  -1.073   0.0000  12.0872   7.79  -4.99   0.00
  1025.76300  -1.822   0.0000  12.0872   7.79  -4.99   0.00
  1025.76300  -3.001   0.0000  12.0871   7.79  -4.99   0.00
  1026.47330  -4.930   0.0000  12.0788   0.00   0.00   0.00
  1026.47440  -3.030   0.0000  12.0788   0.00   0.00   0.00
  1026.47570  -1.910   0.0000  12.0788   0.00   0.00   0.00
  1027.43100  -1.345   0.0196  12.0872   7.79  -4.99   0.00
  1027.43100  -1.822   0.0196  12.0871   7.79  -4.99   0.00
  1028.14310  -5.830   0.0196  12.0788   0.00   0.00   0.00
  1028.14360  -3.540   0.0196  12.0788   0.00   0.00   0.00
  1028.14470  -2.510   0.0196  12.0788   0.00   0.00   0.00
  1028.15700  -1.698   0.0281  12.0871   7.79  -4.99   0.00
  1028.87050  -3.330   0.0281  12.0788   0.00   0.00   0.00
  1039.23000  -1.339   0.0000  11.9305   0.00   0.00   0.00
  1039.64370  -4.610   4.1898  16.1156   0.00   0.00   0.00
  1040.94300  -1.561   0.0196  11.9305   0.00   0.00   0.00
  1041.68800  -2.037   0.0281  11.9305   0.00   0.00   0.00
  1116.53340  -4.120   4.1898  15.2943   0.00   0.00   0.00
  1152.15100  -0.268   1.9674  12.7286   8.72  -5.68   0.00
  1172.50400  -4.512   1.9674  12.5418   0.00   0.00   0.00
  1172.61200  -6.423   1.9674  12.5408   0.00   0.00   0.00
  1172.77900  -4.939   1.9674  12.5393   0.00   0.00   0.00
  1217.64800  -0.862   4.1898  14.3722   8.77   0.00   0.00
  1302.16800  -0.585   0.0000   9.5215   8.75  -5.68   0.00
  1304.85800  -0.808   0.0196   9.5215   8.75  -5.68   0.00
  1306.02900  -1.285   0.0281   9.5215   8.75  -5.68   0.00
  1355.59800  -5.238   0.0000   9.1462   3.23   0.00   0.00
  1358.51200  -5.726   0.0196   9.1462   3.23   0.00   0.00
  1484.49800  -5.047   4.1898  12.5418   0.00   0.00   0.00
  1641.30500  -5.654   1.9674   9.5215   0.00   0.00   0.00
  1727.10600 -10.920   1.9674   9.1462   0.00   0.00   0.00
  1827.06000  -3.420  10.9889  17.7750   0.00   0.00   0.00
  1827.06000  -3.932  10.9889  17.7750   0.00   0.00   0.00
  1827.08000  -3.163  10.9890  17.7750   0.00   0.00   0.00
  1827.08000  -3.774  10.9890  17.7750   0.00   0.00   0.00
  1827.08000  -3.966  10.9890  17.7750   0.00   0.00   0.00
  1846.79220  -3.810   9.5215  16.2350   0.00   0.00   0.00
  1868.34040  -4.750   9.1462  15.7823   0.00   0.00   0.00
  1868.45520  -3.570   9.1462  15.7819   0.00   0.00   0.00
  1868.65500  -2.830   9.1462  15.7812   0.00   0.00   0.00
  1930.50420  -3.090   9.5215  15.9439   0.00   0.00   0.00
  1965.68790  -3.310   9.5215  15.8289   0.00   0.00   0.00
  1980.32900  -4.000   9.5215  15.7823   0.00   0.00   0.00
  1980.45800  -3.530   9.5215  15.7819   0.00   0.00   0.00
  2026.43000  -3.061  10.9889  17.1053   0.00   0.00   0.00
  2026.43000  -3.712  10.9889  17.1053   0.00   0.00   0.00
  2026.46000  -2.797  10.9890  17.1053   0.00   0.00   0.00
  2026.46000  -3.450  10.9890  17.1053   0.00   0.00   0.00
  2026.46000  -3.826  10.9890  17.1053   0.00   0.00   0.00
  2288.54000  -3.275  12.3590  17.7750   0.00   0.00   0.00
  2288.54000  -4.233  12.3590  17.7750   0.00   0.00   0.00
  2288.55000  -3.037  12.3590  17.7750   0.00   0.00   0.00
  2288.56000  -3.709  12.3590  17.7750   0.00   0.00   0.00
  2324.73800  -7.950   4.1898   9.5215   0.00   0.00   0.00
  2417.41300  -3.583  10.9889  16.1162   0.00   0.00   0.00
  2417.71500  -3.708  10.9889  16.1156   0.00   0.00   0.00
  2417.74800  -3.487  10.9890  16.1156   0.00   0.00   0.00
  2417.75700  -3.583  10.9890  16.1156   0.00   0.00   0.00
  2418.26400  -3.486  10.9889  16.1144   0.00   0.00   0.00
  2418.29700  -3.010  10.9890  16.1144   0.00   0.00   0.00
  2432.00000  -3.005  10.9889  16.0855   0.00   0.00   0.00
  2432.03000  -2.783  10.9890  16.0855   0.00   0.00   0.00
  2432.04000  -3.485  10.9890  16.0855   0.00   0.00   0.00
  2433.99000  -3.467  10.9889  16.0813   0.00   0.00   0.00
  2434.03000  -3.344  10.9890  16.0813   0.00   0.00   0.00
  2434.31000  -2.987  10.9889  16.0806   0.00   0.00   0.00
  2434.35000  -3.466  10.9890  16.0806   0.00   0.00   0.00
  2434.65000  -2.710  10.9890  16.0800   0.00   0.00   0.00
  2611.45000  -2.975  12.3590  17.1053   0.00   0.00   0.00
  2611.45000  -3.258  12.3590  17.1053   0.00   0.00   0.00
  2611.45000  -3.440  12.3590  17.1053   0.00   0.00   0.00
  2611.45000  -3.532  12.3590  17.1053   0.00   0.00   0.00
  2611.47000  -3.559  12.3590  17.1053   0.00   0.00   0.00
  2799.85000  -2.767  10.9889  15.4159   0.00   0.00   0.00
  2799.89000  -2.545  10.9890  15.4159   0.00   0.00   0.00
  2799.90000  -3.246  10.9890  15.4159   0.00   0.00   0.00
  2805.53000  -3.203  10.9889  15.4069   0.00   0.00   0.00
  2805.57000  -4.379  10.9890  15.4069   0.00   0.00   0.00
  2805.58000  -3.078  10.9890  15.4069   0.00   0.00   0.00
  2806.02000  -2.721  10.9889  15.4062   0.00   0.00   0.00
  2806.07000  -3.199  10.9890  15.4062   0.00   0.00   0.00
  2806.90000  -2.444  10.9890  15.4048   0.00   0.00   0.00
  2876.29500  -2.739  10.9889  15.2982   0.00   0.00   0.00
  2878.93100  -2.862  10.9889  15.2943   0.00   0.00   0.00
  2878.97800  -2.641  10.9890  15.2943   0.00   0.00   0.00
  2878.99100  -2.738  10.9890  15.2943   0.00   0.00   0.00
  2883.80900  -2.642  10.9889  15.2870   0.00   0.00   0.00
  2883.85600  -2.164  10.9890  15.2870   0.00   0.00   0.00
  2972.28600 -10.052   0.0196   4.1898   0.15   0.00   0.00
  3122.07890  -4.060   9.1462  13.1163   0.00   0.00   0.00
  3122.10430  -4.210   9.1462  13.1163   0.00   0.00   0.00
  3122.12030  -4.430   9.1462  13.1162   0.00   0.00   0.00
  3298.99000  -3.632  12.3590  16.1162   0.00   0.00   0.00
  3299.55200  -3.757  12.3590  16.1156   0.00   0.00   0.00
  3299.56100  -3.535  12.3590  16.1156   0.00   0.00   0.00
  3299.59000  -3.632  12.3590  16.1156   0.00   0.00   0.00
  3300.57500  -3.535  12.3590  16.1144   0.00   0.00   0.00
  3300.58400  -3.058  12.3590  16.1144   0.00   0.00   0.00
  3326.21000  -2.966  12.3590  16.0855   0.00   0.00   0.00
  3326.22000  -2.742  12.3590  16.0855   0.00   0.00   0.00
  3326.24000  -3.444  12.3590  16.0855   0.00   0.00   0.00
  3329.93000  -4.261  12.3590  16.0813   0.00   0.00   0.00
  3329.97000  -4.141  12.3590  16.0813   0.00   0.00   0.00
  3330.54000  -3.777  12.3590  16.0806   0.00   0.00   0.00
  3330.55000  -4.253  12.3590  16.0806   0.00   0.00   0.00
  3331.13000  -3.485  12.3590  16.0800   0.00   0.00   0.00
  3348.17750  -3.150   9.1462  12.8482   0.00   0.00   0.00
  3348.23360  -3.300   9.1462  12.8481   0.00   0.00   0.00
  3348.27360  -3.520   9.1462  12.8481   0.00   0.00   0.00
  3356.14820  -3.120  12.5418  16.2350   0.00   0.00   0.00
  3433.42920  -4.440   9.5215  13.1316   0.00   0.00   0.00
  3433.42920  -3.740   9.5215  13.1316   0.00   0.00   0.00
  3433.42920  -3.960   9.5215  13.1316   0.00   0.00   0.00
  3643.34370  -2.410  12.5418  15.9439   0.00   0.00   0.00
  3663.63050  -3.490  10.9889  14.3722   0.00   0.00   0.00
  3663.70560  -3.340  10.9890  14.3722   0.00   0.00   0.00
  3663.72670  -4.170  10.9890  14.3722   0.00   0.00   0.00
  3663.94690  -3.480  10.7403  14.1233   0.00   0.00   0.00
  3664.21830  -3.260  10.7406  14.1233   0.00   0.00   0.00
  3664.71210  -3.110  10.7410  14.1233   0.00   0.00   0.00
  3692.35600  -3.721   9.5215  12.8784   8.75   0.00  -7.93
  3692.38600  -3.244   9.5215  12.8784   8.75   0.00  -7.93
  3692.39500  -3.022   9.5215  12.8784   8.75   0.00  -7.93
  3700.41550  -4.940  12.7666  16.1162   0.00   0.00   0.00
  3701.13650  -3.510  12.7666  16.1156   0.00   0.00   0.00
  3702.42280  -3.800  12.7666  16.1144   0.00   0.00   0.00
  3702.42280  -2.900  12.7666  16.1144   0.00   0.00   0.00
  3714.69780  -4.890  12.7538  16.0906   0.00   0.00   0.00
  3719.94460  -4.380  13.0732  16.4053   0.00   0.00   0.00
  3720.63980  -4.650  13.0732  16.4047   0.00   0.00   0.00
  3720.65070  -4.850  13.0732  16.4047   0.00   0.00   0.00
  3725.16160  -4.720  13.2398  16.5672   0.00   0.00   0.00
  3725.16160  -4.330  13.2398  16.5672   0.00   0.00   0.00
  3725.16730  -3.860  13.2398  16.5672   0.00   0.00   0.00
  3725.16730  -4.760  13.2398  16.5672   0.00   0.00   0.00
  3734.64300  -3.800  12.7666  16.0855   0.00   0.00   0.00
  3734.64300  -4.850  12.7666  16.0855   0.00   0.00   0.00
  3736.36100  -4.840  13.0732  16.3906   0.00   0.00   0.00
  3736.36100  -3.970  13.0732  16.3906   0.00   0.00   0.00
  3739.87350  -4.580  12.7666  16.0809   0.00   0.00   0.00
  3744.44210  -4.310  12.7666  16.0768   0.00   0.00   0.00
  3770.75830  -2.650  12.5418  15.8289   0.00   0.00   0.00
  3822.57700  -2.892  12.5393  15.7819   0.00   0.00   0.00
  3823.41400  -1.992  12.5393  15.7812   0.00   0.00   0.00
  3823.86800  -2.910  12.5408  15.7823   0.00   0.00   0.00
  3824.34900  -2.245  12.5408  15.7819   0.00   0.00   0.00
  3825.02300  -2.434  12.5418  15.7823   0.00   0.00   0.00
  3825.18700  -2.894  12.5408  15.7812   0.00   0.00   0.00
  3825.50500  -2.910  12.5418  15.7819   0.00   0.00   0.00
  3841.09600  -4.510  13.3402  16.5672   0.00   0.00   0.00
  3855.01400  -1.741  12.7286  15.9439   0.00   0.00   0.00
  3915.69820  -4.860  13.2398  16.4053   0.00   0.00   0.00
  3933.89780  -4.490  13.2398  16.3906   0.00   0.00   0.00
  3947.29500  -2.095   9.1462  12.2863   6.66  -4.70  -7.96
  3947.48100  -2.244   9.1462  12.2862   6.66  -4.70  -7.96
  3947.58600  -2.467   9.1462  12.2861   6.66  -4.70  -7.96
  3951.92800  -3.139  10.9889  14.1254   0.00   0.00   0.00
  3952.88800  -3.264  10.9889  14.1246   0.00   0.00   0.00
  3952.97500  -3.042  10.9890  14.1246   0.00   0.00   0.00
  3953.00000  -3.140  10.9890  14.1246   0.00   0.00   0.00
  3954.51900  -3.043  10.9889  14.1233   0.00   0.00   0.00
  3954.60700  -2.565  10.9890  14.1233   0.00   0.00   0.00
  3997.95300  -1.761  12.7286  15.8289   0.00   0.00   0.00
  4054.77000  -2.696  12.3590  15.4159   0.00   0.00   0.00
  4054.79000  -2.472  12.3590  15.4159   0.00   0.00   0.00
  4054.83000  -3.174  12.3590  15.4159   0.00   0.00   0.00
  4056.06390  -4.080  12.5393  15.5953   0.00   0.00   0.00
  4057.21620  -4.100  12.5408  15.5959   0.00   0.00   0.00
  4057.28140  -3.320  12.5393  15.5943   0.00   0.00   0.00
  4058.05930  -3.430  12.5408  15.5953   0.00   0.00   0.00
  4058.51680  -3.620  12.5418  15.5959   0.00   0.00   0.00
  4059.00680  -4.300  12.7286  15.7823   0.00   0.00   0.00
  4059.27800  -4.220  12.5408  15.5943   0.00   0.00   0.00
  4059.36040  -4.100  12.5418  15.5953   0.00   0.00   0.00
  4059.54900  -3.120  12.7286  15.7819   0.00   0.00   0.00
  4060.49260  -2.370  12.7286  15.7812   0.00   0.00   0.00
  4066.70000  -3.146  12.3590  15.4069   0.00   0.00   0.00
  4066.71000  -4.320  12.3590  15.4069   0.00   0.00   0.00
  4066.75000  -3.021  12.3590  15.4069   0.00   0.00   0.00
  4067.74000  -2.666  12.3590  15.4062   0.00   0.00   0.00
  4067.75000  -3.140  12.3590  15.4062   0.00   0.00   0.00
  4069.51000  -2.389  12.3590  15.4048   0.00   0.00   0.00
  4073.34660  -4.910  13.0732  16.1162   0.00   0.00   0.00
  4074.20470  -4.930  13.0732  16.1156   0.00   0.00   0.00
  4074.21780  -3.620  13.0732  16.1156   0.00   0.00   0.00
  4075.77650  -3.000  13.0732  16.1144   0.00   0.00   0.00
  4075.77650  -3.910  13.0732  16.1144   0.00   0.00   0.00
  4114.85660  -4.890  13.0732  16.0855   0.00   0.00   0.00
  4114.85660  -3.830  13.0732  16.0855   0.00   0.00   0.00
  4121.20970  -4.500  13.0732  16.0809   0.00   0.00   0.00
  4126.75810  -4.240  13.0732  16.0768   0.00   0.00   0.00
  4217.08800  -2.838  12.3590  15.2982   0.00   0.00   0.00
  4222.75700  -2.962  12.3590  15.2943   0.00   0.00   0.00
  4222.77100  -2.741  12.3590  15.2943   0.00   0.00   0.00
  4222.81800  -2.838  12.3590  15.2943   0.00   0.00   0.00
  4233.26000  -2.741  12.3590  15.2870   0.00   0.00   0.00
  4233.27400  -2.265  12.3590  15.2870   0.00   0.00   0.00
  4310.21350  -4.490  13.2398  16.1156   0.00   0.00   0.00
  4311.95810  -4.770  13.2398  16.1144   0.00   0.00   0.00
  4311.95810  -3.870  13.2398  16.1144   0.00   0.00   0.00
  4355.72270  -4.690  13.2398  16.0855   0.00   0.00   0.00
  4368.19300  -2.665   9.5215  12.3590   8.76  -4.68  -7.95
  4368.24200  -1.964   9.5215  12.3590   8.76  -4.68  -7.95
  4368.25800  -2.186   9.5215  12.3590   8.76  -4.68  -7.95
  4466.17600  -4.990  13.3402  16.1156   0.00   0.00   0.00
  4468.04920  -4.370  13.3402  16.1144   0.00   0.00   0.00
  4531.27790  -2.920  10.7403  13.4758   0.00   0.00   0.00
  4531.69300  -2.690  10.7406  13.4758   0.00   0.00   0.00
  4532.44830  -2.550  10.7410  13.4758   0.00   0.00   0.00
  4588.76670  -2.760  10.7403  13.4415   0.00   0.00   0.00
  4589.19240  -2.540  10.7406  13.4415   0.00   0.00   0.00
  4589.96700  -2.390  10.7410  13.4415   0.00   0.00   0.00
  4654.11700  -2.855  10.7403  13.4036   0.00   0.00   0.00
  4654.11800  -2.502  10.7403  13.4036   0.00   0.00   0.00
  4654.11900  -2.610  10.7403  13.4036   0.00   0.00   0.00
  4654.55600  -2.978  10.7406  13.4036   0.00   0.00   0.00
  4654.55700  -2.389  10.7406  13.4036   0.00   0.00   0.00
  4654.55900  -2.185  10.7406  13.4036   0.00   0.00   0.00
  4655.35400  -3.331  10.7410  13.4036   0.00   0.00   0.00
  4655.35600  -2.488  10.7410  13.4036   0.00   0.00   0.00
  4655.35700  -1.900  10.7410  13.4036   0.00   0.00   0.00
  4672.54080  -2.590  10.7403  13.3931   0.00   0.00   0.00
  4672.98220  -2.360  10.7406  13.3931   0.00   0.00   0.00
  4673.78530  -2.220  10.7410  13.3931   0.00   0.00   0.00
  4680.68060  -4.770  12.7666  15.4147   0.00   0.00   0.00
  4696.92180  -4.610  12.7666  15.4056   0.00   0.00   0.00
  4704.41490  -4.210  12.7666  15.4014   0.00   0.00   0.00
  4772.44800  -2.621  10.7403  13.3376   0.00   0.00   0.00
  4772.44900  -2.269  10.7403  13.3376   0.00   0.00   0.00
  4772.45100  -2.378  10.7403  13.3376   0.00   0.00   0.00
  4772.90900  -2.746  10.7406  13.3376   0.00   0.00   0.00
  4772.91100  -2.157  10.7406  13.3376   0.00   0.00   0.00
  4772.91400  -1.952  10.7406  13.3376   0.00   0.00   0.00
  4773.74900  -3.099  10.7410  13.3376   0.00   0.00   0.00
  4773.75200  -2.254  10.7410  13.3376   0.00   0.00   0.00
  4773.75300  -1.667  10.7410  13.3375   0.00   0.00   0.00
  4801.66700  -2.344  10.7403  13.3217   0.00   0.00   0.00
  4802.13400  -2.122  10.7406  13.3217   0.00   0.00   0.00
  4802.98200  -1.976  10.7410  13.3217   0.00   0.00   0.00
  4917.84510  -4.160  12.7666  15.2870   0.00   0.00   0.00
  4967.37600  -2.328  10.7403  13.2356   0.00   0.00   0.00
  4967.37800  -1.977  10.7403  13.2356   0.00   0.00   0.00
  4967.38100  -2.086  10.7403  13.2356   0.00   0.00   0.00
  4967.87700  -2.455  10.7406  13.2356   0.00   0.00   0.00
  4967.88000  -1.865  10.7406  13.2356   0.00   0.00   0.00
  4967.88400  -1.660  10.7406  13.2356   0.00   0.00   0.00
  4968.78800  -2.807  10.7410  13.2356   0.00   0.00   0.00
  4968.79100  -1.961  10.7410  13.2356   0.00   0.00   0.00
  4968.79400  -1.373  10.7410  13.2356   0.00   0.00   0.00
  4979.95210  -2.890  10.9889  13.4779   0.00   0.00   0.00
  4980.09080  -2.670  10.9890  13.4779   0.00   0.00   0.00
  4980.12970  -3.370  10.9890  13.4779   0.00   0.00   0.00
  5018.78200  -2.092  10.7403  13.2101   0.00   0.00   0.00
  5019.29100  -1.871  10.7406  13.2101   0.00   0.00   0.00
  5020.21800  -1.724  10.7410  13.2101   0.00   0.00   0.00
  5047.64070  -2.740  10.9889  13.4445   0.00   0.00   0.00
  5047.78320  -2.520  10.9890  13.4445   0.00   0.00   0.00
  5047.82320  -3.220  10.9890  13.4445   0.00   0.00   0.00
  5131.14000  -2.831  10.9889  13.4046   0.00   0.00   0.00
  5131.14000  -3.307  10.9889  13.4046   0.00   0.00   0.00
  5131.29000  -2.559  10.9890  13.4046   0.00   0.00   0.00
  5131.29000  -3.308  10.9890  13.4046   0.00   0.00   0.00
  5131.29000  -4.484  10.9890  13.4046   0.00   0.00   0.00
  5131.33000  -3.183  10.9890  13.4046   0.00   0.00   0.00
  5146.30290  -2.570  10.9889  13.3975   0.00   0.00   0.00
  5146.45100  -2.340  10.9890  13.3975   0.00   0.00   0.00
  5146.49260  -3.040  10.9890  13.3975   0.00   0.00   0.00
  5274.96700  -2.560  10.9889  13.3387   0.00   0.00   0.00
  5274.96700  -3.037  10.9889  13.3387   0.00   0.00   0.00
  5275.12300  -2.289  10.9890  13.3387   0.00   0.00   0.00
  5275.12300  -3.037  10.9890  13.3387   0.00   0.00   0.00
  5275.12300  -4.213  10.9890  13.3387   0.00   0.00   0.00
  5275.16600  -2.912  10.9890  13.3387   0.00   0.00   0.00
  5298.88700  -2.345  10.9889  13.3281   0.00   0.00   0.00
  5299.04400  -2.123  10.9890  13.3281   0.00   0.00   0.00
  5299.08800  -2.823  10.9890  13.3281   0.00   0.00   0.00
  5329.09600  -1.938  10.7403  13.0663   7.55  -3.43   0.00
  5329.09900  -1.586  10.7403  13.0663   7.55  -3.43   0.00
  5329.10700  -1.695  10.7403  13.0663   7.54  -3.43   0.00
  5329.67300  -2.063  10.7406  13.0663   7.54  -3.43   0.00
  5329.68100  -1.473  10.7406  13.0663   7.54  -3.43   0.00
  5329.69000  -1.268  10.7406  13.0663   7.54  -3.43   0.00
  5330.72600  -2.416  10.7410  13.0663   7.55  -3.43   0.00
  5330.73500  -1.570  10.7410  13.0663   7.55  -3.43   0.00
  5330.74100  -0.983  10.7410  13.0663   7.55  -3.43   0.00
  5435.17800  -1.766  10.7403  13.0209   7.60  -3.82   0.00
  5435.77500  -1.544  10.7406  13.0209   7.60  -3.82   0.00
  5436.86200  -1.399  10.7410  13.0209   7.60  -3.82   0.00
  5512.60200  -2.212  10.9889  13.2374   0.00   0.00   0.00
  5512.60200  -2.691  10.9889  13.2374   0.00   0.00   0.00
  5512.77200  -1.942  10.9890  13.2374   0.00   0.00   0.00
  5512.77200  -2.690  10.9890  13.2374   0.00   0.00   0.00
  5512.77200  -3.866  10.9890  13.2374   0.00   0.00   0.00
  5512.82000  -2.565  10.9890  13.2374   0.00   0.00   0.00
  5554.83200  -2.092  10.9889  13.2203   0.00   0.00   0.00
  5555.00400  -1.870  10.9890  13.2203   0.00   0.00   0.00
  5555.05300  -2.570  10.9890  13.2203   0.00   0.00   0.00
  5577.33860  -8.204   1.9674   4.1898   0.15   0.00   0.00
  5958.38600  -1.742  10.9889  13.0692   0.00   0.00   0.00
  5958.38600  -2.219  10.9889  13.0692   0.00   0.00   0.00
  5958.58400  -1.471  10.9890  13.0692   0.00   0.00   0.00
  5958.58400  -2.219  10.9890  13.0692   0.00   0.00   0.00
  5958.58400  -3.395  10.9890  13.0692   0.00   0.00   0.00
  5958.64000  -2.094  10.9890  13.0692   0.00   0.00   0.00
  6046.23300  -1.763  10.9889  13.0390   7.52  -3.79   0.00
  6046.43800  -1.541  10.9890  13.0390   7.52  -3.79   0.00
  6046.49500  -2.240  10.9890  13.0390   7.53  -3.79   0.00
  6106.26490  -0.638  14.0469  16.0768   7.59   0.00   0.00
  6140.58200  -4.419  10.7406  12.7591   0.00   0.00   0.00
  6155.96100  -1.363  10.7403  12.7539   7.60  -3.96  -6.86
  6155.97100  -1.011  10.7403  12.7538   7.61  -3.96  -6.86
  6155.98900  -1.120  10.7403  12.7538   7.61  -3.96  -6.86
  6156.73700  -1.487  10.7406  12.7538   7.61  -3.96  -6.86
  6156.75500  -0.898  10.7406  12.7538   7.61  -3.96  -6.86
  6156.77800  -0.694  10.7406  12.7538   7.62  -3.96  -6.86
  6158.14900  -1.841  10.7410  12.7538   7.62  -3.96  -6.86
  6158.17200  -0.995  10.7410  12.7538   7.62  -3.96  -6.86
  6158.18700  -0.409  10.7410  12.7538   7.61  -3.96  -6.86
  6256.46600  -3.401  14.0989  16.0801   7.64   0.00   0.00
  6259.19590  -1.681  14.0998  16.0801   7.64   0.00   0.00
  6261.45080  -0.621  14.1005  16.0801   7.64   0.00   0.00
  6261.54690  -0.391  14.0989  16.0785   7.64   0.00   0.00
  6261.81400  -1.681  14.0989  16.0784   7.64   0.00   0.00
  6264.54850  -0.501  14.0998  16.0784   7.64   0.00   0.00
  6266.89100  -1.010  14.0989  16.0768   7.64   0.00   0.00
  6269.63000  -2.180  14.0998  16.0768   7.64   0.00   0.00
  6300.30380 -12.202   0.0000   1.9674  -2.17   0.00   0.00
  6323.38500  -3.487  12.0871  14.0473   0.00   0.00   0.00
  6323.41300  -3.965  12.0872  14.0473   0.00   0.00   0.00
  6324.77200  -3.965  12.0871  14.0469   0.00   0.00   0.00
  6324.80000  -3.298  12.0872  14.0469   0.00   0.00   0.00
  6324.81500  -3.949  12.0872  14.0469   0.00   0.00   0.00
  6324.83600  -3.948  12.0872  14.0469   0.00   0.00   0.00
  6324.85100  -3.046  12.0872  14.0469   0.00   0.00   0.00
  6363.77600 -10.258   0.0196   1.9674  -2.17   0.00   0.00
  6363.77600 -12.988   0.0196   1.9674   0.00   0.00   0.00
  6391.73300 -13.579   0.0281   1.9674   0.00   0.00   0.00
  6453.60200  -1.288  10.7403  12.6610   7.66  -4.28   0.00
  6454.44400  -1.066  10.7406  12.6610   7.66  -4.28   0.00
  6455.97700  -0.920  10.7410  12.6610   7.66  -4.28   0.00
  6456.67520  -3.920  12.5408  14.4606   0.00   0.00   0.00
  6459.96960  -4.840  12.5418  14.4606   0.00   0.00   0.00
  6653.83400  -0.400  14.3722  16.2350   8.81   0.00   0.00
  6726.28400  -4.398   9.1462  10.9890   0.00   0.00   0.00
  6726.53700  -4.882   9.1462  10.9889   0.00   0.00   0.00
  7001.89900  -1.489  10.9889  12.7592   7.93  -3.93   0.00
  7001.92200  -1.011  10.9889  12.7592   7.93  -3.93   0.00
  7002.17300  -2.664  10.9890  12.7592   7.93  -3.93   0.00
  7002.19600  -1.489  10.9890  12.7592   7.93  -3.93   0.00
  7002.23000  -0.741  10.9890  12.7591   7.93  -3.93   0.00
  7002.25000  -1.364  10.9890  12.7592   7.94  -3.93   0.00
  7017.30000  -3.624  12.3590  14.1254   0.00   0.00   0.00
  7020.32700  -3.748  12.3590  14.1246   0.00   0.00   0.00
  7020.36700  -3.527  12.3590  14.1246   0.00   0.00   0.00
  7020.49500  -3.625  12.3590  14.1246   0.00   0.00   0.00
  7025.47500  -3.527  12.3590  14.1233   0.00   0.00   0.00
  7025.51500  -3.050  12.3590  14.1233   0.00   0.00   0.00
  7156.70100   0.288  12.7286  14.4606   8.76  -5.35   0.00
  7254.15400  -1.275  10.9889  12.6976   7.59  -4.25   0.00
  7254.44800  -1.054  10.9890  12.6976   7.59  -4.25   0.00
  7254.53100  -1.753  10.9890  12.6976   7.59  -4.25   0.00
  7471.40350  -1.540  14.1233  15.7823   8.55   0.00   0.00
  7473.24040  -0.370  14.1233  15.7819   8.55   0.00   0.00
  7476.43900   0.380  14.1233  15.7812   8.55   0.00   0.00
  7477.23410  -0.370  14.1246  15.7823   8.56   0.00   0.00
  7479.07390   0.110  14.1246  15.7819   8.56   0.00   0.00
  7480.67120  -0.240  14.1254  15.7823   8.56   0.00   0.00
  7771.94400   0.369   9.1462  10.7410   7.52  -5.55  -7.47
  7774.16600   0.223   9.1462  10.7406   7.52  -5.55  -7.47
  7775.38800   0.002   9.1462  10.7403   7.52  -5.55  -7.47
  7780.73950  -3.830  12.5408  14.1339   0.00   0.00   0.00
  7886.27320   0.236  14.3722  15.9439   8.80   0.00   0.00
  7939.51880  -2.180  12.5393  14.1005   8.47  -5.54   0.00
  7943.14730  -0.550  12.5393  14.0998   8.47  -5.54   0.00
  7947.16760  -0.550  12.5408  14.1005   8.47  -5.54   0.00
  7947.54790   0.500  12.5393  14.0989   8.47  -5.54   0.00
  7950.80310   0.340  12.5408  14.0998   8.47  -5.54   0.00
  7952.15900   0.170  12.5418  14.1005   8.46  -5.54   0.00
  7981.94200  -3.175  10.9889  12.5418   8.45   0.00   0.00
  7982.29800  -4.287  10.9890  12.5418   8.45   0.00   0.00
  7982.39800  -3.053  10.9890  12.5418   8.45   0.00   0.00
  7986.97700  -2.698  10.9889  12.5408   8.46   0.00   0.00
  7987.33400  -3.171  10.9890  12.5408   8.46   0.00   0.00
  7995.07500  -2.423  10.9890  12.5393   8.45   0.00   0.00
  8221.79800  -0.589  12.5393  14.0469   8.46  -5.40   0.00
  8221.82400   0.312  12.5393  14.0469   8.46  -5.40   0.00
  8227.65300  -0.606  12.5408  14.0473   8.46  -5.40   0.00
  8230.00100   0.060  12.5408  14.0469   8.46  -5.40   0.00
  8230.02600  -0.589  12.5408  14.0469   8.46  -5.40   0.00
  8233.00300  -0.130  12.5418  14.0473   8.45  -5.40   0.00
  8235.35400  -0.607  12.5418  14.0469   8.45  -5.40   0.00
  8291.71360  -4.230  12.5408  14.0357   0.00   0.00   0.00
  8446.24700  -0.463   9.5215  10.9890   8.77  -5.44   0.00
  8446.35900   0.236   9.5215  10.9890   8.77  -5.44   0.00
  8446.75800   0.014   9.5215  10.9889   8.77  -5.44   0.00
  8508.58220  -0.026  14.3722  15.8289   8.79   0.00   0.00
  8820.42300   0.379  12.7286  14.1339   8.74  -5.51   0.00
  9034.91190  -4.770  12.7286  14.1005   0.00   0.00   0.00
  9039.61090  -3.860  12.7286  14.0998   0.00   0.00   0.00
  9204.93300  -3.831  10.7406  12.0872   0.00   0.00   0.00
  9260.80600  -0.241  10.7403  12.0788   7.87  -4.95   0.00
  9260.84800   0.110  10.7403  12.0788   7.88  -4.95   0.00
  9260.93600   0.002  10.7403  12.0788   7.90  -4.95   0.00
  9262.58200  -0.368  10.7406  12.0788   7.88  -4.95   0.00
  9262.67000   0.224  10.7406  12.0788   7.90  -4.95   0.00
  9262.77600   0.427  10.7406  12.0788   7.93  -4.95   0.00
  9265.82600  -0.718  10.7410  12.0788   7.90  -4.95   0.00
  9265.93200   0.125  10.7410  12.0788   7.94  -4.95   0.00
  9266.00600   0.712  10.7410  12.0787   7.88  -4.95   0.00
  9399.19210  -4.790  12.7286  14.0473   0.00   0.00   0.00
  9402.25590  -4.110  12.7286  14.0469   0.00   0.00   0.00
  9402.28950  -4.930  12.7286  14.0469   0.00   0.00   0.00
  9482.88800  -0.024  12.7286  14.0357   8.74   0.00   0.00
  9622.11400  -2.663  12.7592  14.0473   0.00   0.00   0.00
  9622.15600  -2.184  12.7592  14.0473   0.00   0.00   0.00
  9625.26100  -2.646  12.7591  14.0469   0.00   0.00   0.00
  9625.29600  -1.745  12.7591  14.0469   0.00   0.00   0.00
  9625.32500  -1.997  12.7592  14.0469   0.00   0.00   0.00
  9625.36000  -2.646  12.7592  14.0469   0.00   0.00   0.00
  9625.36700  -2.663  12.7592  14.0469   0.00   0.00   0.00
  9694.66100  -2.349  11.8377  13.1163   0.00   0.00  -7.87
  9694.90600  -2.495  11.8377  13.1163   0.00   0.00  -7.87
  9695.06000  -2.717  11.8377  13.1162   0.00   0.00  -7.87
  9825.78900  -0.671  12.0787  13.3402   0.00   0.00   0.00
  9825.78900  -1.535  12.0787  13.3402   0.00   0.00   0.00
  9825.78900  -2.711  12.0787  13.3402   0.00   0.00   0.00
  9825.87200  -0.836  12.0788  13.3402   0.00   0.00   0.00
  9825.87200  -1.389  12.0788  13.3402   0.00   0.00   0.00
  9825.87200  -2.410  12.0788  13.3402   0.00   0.00   0.00
  9825.99100  -1.030  12.0788  13.3402   0.00   0.00   0.00
  9825.99100  -1.410  12.0788  13.3402   0.00   0.00   0.00
  9825.99100  -2.410  12.0788  13.3402   0.00   0.00   0.00
  9826.09000  -1.264  12.0788  13.3402   0.00   0.00   0.00
  9826.09000  -1.565  12.0788  13.3402   0.00   0.00   0.00
  9826.13700  -1.565  12.0788  13.3402   0.00   0.00   0.00
  9891.64700  -1.101  12.0871  13.3402   0.00   0.00   0.00
  9891.65350  -3.320  12.0871  13.3402   0.00   0.00   0.00
  9891.71500  -0.931  12.0872  13.3402   0.00   0.00   0.00
  9891.71500  -1.833  12.0872  13.3402   0.00   0.00   0.00
  9891.72200  -3.680  12.0872  13.3402   0.00   0.00   0.00
  9891.80300  -0.772  12.0872  13.3402   0.00   0.00   0.00
  9891.80300  -1.833  12.0872  13.3402   0.00   0.00   0.00
  9891.80300  -3.384  12.0872  13.3402   0.00   0.00   0.00
 10167.25600  -4.553   9.5215  10.7406   0.00   0.00   0.00
 10169.34600  -5.038   9.5215  10.7403   0.00   0.00   0.00
 10320.30400  -3.020  11.9305  13.1316   0.00   0.00   0.00
 10320.30400  -2.540  11.9305  13.1316   0.00   0.00   0.00
 10320.30400  -2.320  11.9305  13.1316   0.00   0.00   0.00
 10372.18100  -2.660  12.2861  13.4811   0.00   0.00   0.00
 10372.18100  -2.420  12.2861  13.4811   0.00   0.00   0.00
 10372.18100  -2.310  12.2861  13.4811   0.00   0.00   0.00
 10372.90600  -2.200  12.2862  13.4811   0.00   0.00   0.00
 10372.90600  -1.990  12.2862  13.4811   0.00   0.00   0.00
 10372.90600  -2.790  12.2862  13.4811   0.00   0.00   0.00
 10374.19300  -2.300  12.2863  13.4811   0.00   0.00   0.00
 10374.19300  -3.140  12.2863  13.4811   0.00   0.00   0.00
 10374.19300  -1.710  12.2863  13.4811   0.00   0.00   0.00
 10418.77000  -2.510  12.2861  13.4758   0.00   0.00   0.00
 10419.50100  -2.290  12.2862  13.4758   0.00   0.00   0.00
 10420.80000  -2.140  12.2863  13.4758   0.00   0.00   0.00
 10661.20700  -2.490  12.2861  13.4487   0.00   0.00   0.00
 10661.20700  -2.250  12.2861  13.4487   0.00   0.00   0.00
 10661.20700  -2.140  12.2861  13.4487   0.00   0.00   0.00
 10661.97200  -2.620  12.2862  13.4487   0.00   0.00   0.00
 10661.97200  -1.820  12.2862  13.4487   0.00   0.00   0.00
 10661.97200  -2.030  12.2862  13.4487   0.00   0.00   0.00
 10663.33200  -2.970  12.2863  13.4487   0.00   0.00   0.00
 10663.33200  -2.130  12.2863  13.4487   0.00   0.00   0.00
 10663.33200  -1.540  12.2863  13.4487   0.00   0.00   0.00
 10675.66800  -0.351  12.0787  13.2398   0.00   0.00   0.00
 10675.66800  -1.216  12.0787  13.2398   0.00   0.00   0.00
 10675.66800  -2.392  12.0787  13.2398   0.00   0.00   0.00
 10675.76600  -0.516  12.0788  13.2398   0.00   0.00   0.00
 10675.76600  -1.070  12.0788  13.2398   0.00   0.00   0.00
 10675.76600  -2.091  12.0788  13.2398   0.00   0.00   0.00
 10675.90600  -0.710  12.0788  13.2398   0.00   0.00   0.00
 10675.90600  -1.091  12.0788  13.2398   0.00   0.00   0.00
 10675.90600  -2.091  12.0788  13.2398   0.00   0.00   0.00
 10676.02300  -0.944  12.0788  13.2398   0.00   0.00   0.00
 10676.02300  -1.245  12.0788  13.2398   0.00   0.00   0.00
 10676.07900  -1.245  12.0788  13.2398   0.00   0.00   0.00
 10727.78900  -2.340  12.2861  13.4415   0.00   0.00   0.00
 10728.56400  -2.120  12.2862  13.4415   0.00   0.00   0.00
 10729.94100  -1.970  12.2863  13.4415   0.00   0.00   0.00
 10753.41700  -0.781  12.0871  13.2398   0.00   0.00   0.00
 10753.46400  -3.010  12.0871  13.2398   0.00   0.00   0.00
 10753.49800  -0.610  12.0872  13.2398   0.00   0.00   0.00
 10753.49800  -1.512  12.0872  13.2398   0.00   0.00   0.00
 10753.54500  -3.360  12.0872  13.2398   0.00   0.00   0.00
 10753.60200  -0.449  12.0872  13.2398   0.00   0.00   0.00
 10753.60200  -1.511  12.0872  13.2398   0.00   0.00   0.00
 10753.60200  -3.062  12.0872  13.2398   0.00   0.00   0.00
 11040.43700  -2.380  12.3590  13.4817   0.00   0.00   0.00
 11040.43700  -2.860  12.3590  13.4817   0.00   0.00   0.00
 11040.53600  -2.110  12.3590  13.4817   0.00   0.00   0.00
 11040.53600  -2.860  12.3590  13.4817   0.00   0.00   0.00
 11040.53600  -4.040  12.3590  13.4817   0.00   0.00   0.00
 11040.85300  -2.730  12.3590  13.4817   0.00   0.00   0.00
 11077.87300  -2.500  12.3590  13.4779   0.00   0.00   0.00
 11077.97200  -2.280  12.3590  13.4779   0.00   0.00   0.00
 11078.29200  -2.980  12.3590  13.4779   0.00   0.00   0.00
 11091.89200  -2.276  12.2861  13.4036   0.00   0.00   0.00
 11091.89600  -1.924  12.2861  13.4036   0.00   0.00   0.00
 11091.90300  -2.035  12.2861  13.4036   0.00   0.00   0.00
 11092.72400  -2.401  12.2862  13.4036   0.00   0.00   0.00
 11092.73200  -1.812  12.2862  13.4036   0.00   0.00   0.00
 11092.74100  -1.608  12.2862  13.4036   0.00   0.00   0.00
 11094.20400  -2.754  12.2863  13.4036   0.00   0.00   0.00
 11094.21400  -1.909  12.2863  13.4036   0.00   0.00   0.00
 11094.22000  -1.322  12.2863  13.4036   0.00   0.00   0.00
 11197.10900  -2.140  12.2861  13.3931   0.00   0.00   0.00
 11197.95300  -1.910  12.2862  13.3931   0.00   0.00   0.00
 11199.45300  -1.770  12.2863  13.3931   0.00   0.00   0.00
 11286.31700   0.346  10.9889  12.0872   7.95  -4.99   0.00
 11286.40600  -0.131  10.9889  12.0871   7.95  -4.99   0.00
 11286.91400   0.616  10.9890  12.0872   7.95  -4.99   0.00
 11287.02900  -0.131  10.9890  12.0872   7.95  -4.99   0.00
 11287.11800  -1.307  10.9890  12.0871   7.95  -4.99   0.00
 11287.31800  -0.006  10.9890  12.0871   7.96  -4.99   0.00
 11295.10300  -0.292  10.7403  11.8377   7.93  -4.88   0.00
 11297.68200  -0.070  10.7406  11.8377   7.93  -4.88   0.00
 11302.37800   0.078  10.7410  11.8377   7.93  -4.88   0.00
 11366.03800  -2.150  12.3590  13.4495   0.00   0.00   0.00
 11366.03800  -2.620  12.3590  13.4495   0.00   0.00   0.00
 11366.14300  -2.620  12.3590  13.4495   0.00   0.00   0.00
 11366.14300  -1.880  12.3590  13.4495   0.00   0.00   0.00
 11366.14300  -3.800  12.3590  13.4495   0.00   0.00   0.00
 11366.47900  -2.500  12.3590  13.4495   0.00   0.00   0.00
 11373.91700  -4.635  10.9890  12.0788   0.00   0.00   0.00
 11374.00700  -3.863  10.9890  12.0788   0.00   0.00   0.00
 11418.48500  -2.340  12.3590  13.4445   0.00   0.00   0.00
 11418.59100  -2.120  12.3590  13.4445   0.00   0.00   0.00
 11418.93000  -2.820  12.3590  13.4445   0.00   0.00   0.00
 11788.47500  -2.009  12.2861  13.3376   0.00   0.00   0.00
 11788.48100  -1.656  12.2861  13.3376   0.00   0.00   0.00
 11788.49300  -1.765  12.2861  13.3376   0.00   0.00   0.00
 11789.41600  -2.132  12.2862  13.3376   0.00   0.00   0.00
 11789.42900  -1.544  12.2862  13.3376   0.00   0.00   0.00
 11789.44400  -1.340  12.2862  13.3376   0.00   0.00   0.00
 11791.09200  -2.486  12.2863  13.3376   0.00   0.00   0.00
 11791.10700  -1.640  12.2863  13.3376   0.00   0.00   0.00
 11791.11800  -1.054  12.2863  13.3375   0.00   0.00   0.00
 11854.90000  -1.969  12.3590  13.4046   0.00   0.00   0.00
 11854.90000  -2.447  12.3590  13.4046   0.00   0.00   0.00
 11855.00000  -1.697  12.3590  13.4046   0.00   0.00   0.00
 11855.00000  -2.447  12.3590  13.4046   0.00   0.00   0.00
 11855.00000  -3.623  12.3590  13.4046   0.00   0.00   0.00
 11855.40000  -2.322  12.3590  13.4046   0.00   0.00   0.00
 11868.08600  -2.745  12.0871  13.1316   0.00   0.00   0.00
 11868.08600  -2.870  12.0871  13.1316   0.00   0.00   0.00
 11868.08600  -4.046  12.0871  13.1316   0.00   0.00   0.00
 11868.18500  -2.393  12.0872  13.1316   0.00   0.00   0.00
 11868.18500  -2.869  12.0872  13.1316   0.00   0.00   0.00
 11868.31100  -2.122  12.0872  13.1316   0.00   0.00   0.00
 11936.13100  -2.130  12.3590  13.3975   0.00   0.00   0.00
 11936.24600  -1.910  12.3590  13.3975   0.00   0.00   0.00
 11936.61700  -2.610  12.3590  13.3975   0.00   0.00   0.00
 11946.69400  -2.617  12.0787  13.1163   0.00   0.00   0.00
 11946.81700  -3.204  12.0788  13.1163   0.00   0.00   0.00
 11946.99300  -4.050  12.0788  13.1163   0.00   0.00   0.00
 11947.19000  -2.902  12.0788  13.1163   0.00   0.00   0.00
 11947.36500  -3.108  12.0788  13.1163   0.00   0.00   0.00
 11947.51300  -3.696  12.0788  13.1163   0.00   0.00   0.00
 11947.60000  -3.329  12.0788  13.1162   0.00   0.00   0.00
 11947.74700  -3.220  12.0788  13.1162   0.00   0.00   0.00
 11947.81700  -3.572  12.0788  13.1162   0.00   0.00   0.00
 11968.37400  -1.875  12.2861  13.3217   0.00   0.00  -7.78
 11969.33800  -1.655  12.2862  13.3217   0.00   0.00  -7.78
 11971.05200  -1.508  12.2863  13.3217   0.00   0.00  -7.78
 12266.75800  -1.430  11.8377  12.8482   0.00   0.00  -7.88
 12267.51100  -1.576  11.8377  12.8481   0.00   0.00  -7.88
 12268.04800  -1.798  11.8377  12.8481   0.00   0.00  -7.88
 12463.84000   0.104  12.0787  13.0732   0.00   0.00   0.00
 12463.84000  -0.761  12.0787  13.0732   0.00   0.00   0.00
 12463.84000  -1.937  12.0787  13.0732   0.00   0.00   0.00
 12463.97400  -0.061  12.0788  13.0732   0.00   0.00   0.00
 12463.97400  -0.614  12.0788  13.0732   0.00   0.00   0.00
 12463.97400  -1.637  12.0788  13.0732   0.00   0.00   0.00
 12464.16500  -0.255  12.0788  13.0732   0.00   0.00   0.00
 12464.16500  -0.637  12.0788  13.0732   0.00   0.00   0.00
 12464.16500  -1.636  12.0788  13.0732   0.00   0.00   0.00
 12464.32500  -0.490  12.0788  13.0732   0.00   0.00   0.00
 12464.32500  -0.790  12.0788  13.0732   0.00   0.00   0.00
 12464.40100  -0.790  12.0788  13.0732   0.00   0.00   0.00
 12569.88600  -0.319  12.0871  13.0732   0.00   0.00   0.00
 12569.99600  -0.149  12.0872  13.0732   0.00   0.00   0.00
 12569.99600  -1.050  12.0872  13.0732   0.00   0.00   0.00
 12570.01000  -2.560  12.0871  13.0732   0.00   0.00   0.00
 12570.12100  -2.910  12.0872  13.0732   0.00   0.00   0.00
 12570.13800   0.012  12.0872  13.0732   0.00   0.00   0.00
 12570.13800  -1.050  12.0872  13.0732   0.00   0.00   0.00
 12570.13800  -2.600  12.0872  13.0732   0.00   0.00   0.00
 12651.86900  -1.675  12.3590  13.3387   0.00   0.00   0.00
 12651.86900  -2.153  12.3590  13.3387   0.00   0.00   0.00
 12651.99800  -1.405  12.3590  13.3387   0.00   0.00   0.00
 12651.99800  -2.153  12.3590  13.3387   0.00   0.00   0.00
 12651.99800  -3.330  12.3590  13.3387   0.00   0.00   0.00
 12652.41500  -2.028  12.3590  13.3387   0.00   0.00   0.00
 12790.35000  -1.885  12.3590  13.3281   0.00   0.00  -7.78
 12790.48300  -1.663  12.3590  13.3281   0.00   0.00  -7.78
 12790.90800  -2.363  12.3590  13.3281   0.00   0.00  -7.78
 13053.77300  -1.655  12.2861  13.2356   0.00   0.00   0.00
 13053.78400  -1.303  12.2861  13.2356   0.00   0.00   0.00
 13053.80700  -1.412  12.2861  13.2356   0.00   0.00   0.00
 13054.93200  -1.781  12.2862  13.2356   0.00   0.00   0.00
 13054.95400  -1.190  12.2862  13.2356   0.00   0.00   0.00
 13054.98100  -0.986  12.2862  13.2356   0.00   0.00   0.00
 13056.99300  -2.132  12.2863  13.2356   0.00   0.00   0.00
 13057.02000  -1.288  12.2863  13.2356   0.00   0.00   0.00
 13057.03900  -0.701  12.2863  13.2356   0.00   0.00   0.00
 13076.52100  -2.135  11.9305  12.8784   0.00   0.00   0.00
 13076.90400  -1.657  11.9305  12.8784   0.00   0.00   0.00
 13077.00700  -1.436  11.9305  12.8784   0.00   0.00   0.00
 13163.88900  -0.254  10.9889  11.9305   7.67  -4.84   0.00
 13164.85800  -0.032  10.9890  11.9305   7.67  -4.84   0.00
 13165.13100  -0.731  10.9890  11.9305   7.67  -4.84   0.00
 13414.85300  -1.552  12.2861  13.2101   0.00   0.00   0.00
 13416.06400  -1.331  12.2862  13.2101   0.00   0.00   0.00
 13418.21800  -1.185  12.2863  13.2101   0.00   0.00   0.00
 14110.79700  -1.283  12.3590  13.2374   0.00   0.00   0.00
 14110.79700  -1.760  12.3590  13.2374   0.00   0.00   0.00
 14110.95800  -1.012  12.3590  13.2374   0.00   0.00   0.00
 14110.95800  -1.761  12.3590  13.2374   0.00   0.00   0.00
 14110.95800  -2.937  12.3590  13.2374   0.00   0.00   0.00
 14111.47600  -1.636  12.3590  13.2374   0.00   0.00   0.00
 14390.83900  -1.559  12.3590  13.2203   0.00   0.00   0.00
 14391.00700  -1.338  12.3590  13.2203   0.00   0.00   0.00
 14391.54600  -2.037  12.3590  13.2203   0.00   0.00   0.00
 15476.27000  -2.300  12.5393  13.3402   0.00   0.00   0.00
 15476.27000  -3.361  12.5393  13.3402   0.00   0.00   0.00
 15476.27000  -4.912  12.5393  13.3402   0.00   0.00   0.00
 15505.36000  -2.461  12.5408  13.3402   0.00   0.00   0.00
 15505.36000  -3.364  12.5408  13.3402   0.00   0.00   0.00
 15524.37100  -2.632  12.5418  13.3402   0.00   0.00   0.00
 15665.09800  -2.172  12.0871  12.8784   0.00   0.00   0.00
 15665.64800  -2.297  12.0871  12.8784   0.00   0.00   0.00
 15665.79600  -3.473  12.0871  12.8784   0.00   0.00   0.00
 15665.82000  -1.820  12.0872  12.8784   0.00   0.00   0.00
 15665.96700  -2.297  12.0872  12.8784   0.00   0.00   0.00
 15666.18800  -1.547  12.0872  12.8784   0.00   0.00   0.00
 15887.64200  -1.136  12.2861  13.0663   0.00   0.00   0.00
 15887.67500  -0.783  12.2861  13.0663   0.00   0.00   0.00
 15887.74300  -0.894  12.2861  13.0663   0.00   0.00   0.00
 15889.37400  -1.262  12.2862  13.0663   0.00   0.00   0.00
 15889.44300  -0.670  12.2862  13.0663   0.00   0.00   0.00
 15889.52300  -0.466  12.2862  13.0663   0.00   0.00   0.00
 15892.46300  -1.612  12.2863  13.0663   0.00   0.00   0.00
 15892.54400  -0.768  12.2863  13.0663   0.00   0.00   0.00
 15892.60200  -0.182  12.2863  13.0663   0.00   0.00   0.00
 16109.08700  -2.071  12.0787  12.8482   0.00   0.00   0.00
 16109.31000  -2.657  12.0788  12.8482   0.00   0.00   0.00
 16109.62900  -3.504  12.0788  12.8482   0.00   0.00   0.00
 16110.60800  -2.357  12.0788  12.8481   0.00   0.00   0.00
 16110.92800  -2.561  12.0788  12.8481   0.00   0.00   0.00
 16111.19500  -3.151  12.0788  12.8481   0.00   0.00   0.00
 16111.85400  -2.783  12.0788  12.8481   0.00   0.00   0.00
 16112.12200  -2.672  12.0788  12.8481   0.00   0.00   0.00
 16112.24900  -3.026  12.0788  12.8481   0.00   0.00   0.00
 16869.21600  -1.070  12.2861  13.0209   0.00   0.00   0.00
 16871.13200  -0.848  12.2862  13.0209   0.00   0.00   0.00
 16874.53800  -0.702  12.2863  13.0209   0.00   0.00   0.00
 17332.74600  -4.860  12.7666  13.4817   0.00   0.00   0.00
 17333.02800  -4.020  12.7666  13.4817   0.00   0.00   0.00
 17333.02800  -4.020  12.7666  13.4817   0.00   0.00   0.00
 17333.02800  -3.120  12.7666  13.4817   0.00   0.00   0.00
 17333.02800  -3.290  12.7666  13.4817   0.00   0.00   0.00
 17333.02800  -3.040  12.7666  13.4817   0.00   0.00   0.00
 17346.58000  -3.700  12.7666  13.4811   0.00   0.00   0.00
 17346.58000  -3.550  12.7666  13.4811   0.00   0.00   0.00
 17346.58000  -3.680  12.7666  13.4811   0.00   0.00   0.00
 17346.58000  -3.400  12.7666  13.4811   0.00   0.00   0.00
 17346.58000  -4.850  12.7666  13.4811   0.00   0.00   0.00
 17346.58000  -2.810  12.7666  13.4811   0.00   0.00   0.00
 17346.58000  -4.550  12.7666  13.4811   0.00   0.00   0.00
 17346.58000  -3.530  12.7666  13.4811   0.00   0.00   0.00
 17346.58000  -2.980  12.7666  13.4811   0.00   0.00   0.00
 17346.58000  -4.550  12.7666  13.4811   0.00   0.00   0.00
 17346.58000  -3.700  12.7666  13.4811   0.00   0.00   0.00
 17346.58000  -3.170  12.7666  13.4811   0.00   0.00   0.00
 17346.86300  -4.790  12.7666  13.4811   0.00   0.00   0.00
 17453.21200  -0.694  12.3590  13.0692   0.00   0.00   0.00
 17453.21200  -1.171  12.3590  13.0692   0.00   0.00   0.00
 17453.45900  -0.423  12.3590  13.0692   0.00   0.00   0.00
 17453.45900  -1.171  12.3590  13.0692   0.00   0.00   0.00
 17453.45900  -2.347  12.3590  13.0692   0.00   0.00   0.00
 17454.25100  -1.046  12.3590  13.0692   0.00   0.00   0.00
 17694.92800  -1.973  12.5393  13.2398   0.00   0.00   0.00
 17694.92800  -3.034  12.5393  13.2398   0.00   0.00   0.00
 17694.92800  -4.584  12.5393  13.2398   0.00   0.00   0.00
 17732.96600  -2.135  12.5408  13.2398   0.00   0.00   0.00
 17732.96600  -3.036  12.5408  13.2398   0.00   0.00   0.00
 17757.83700  -2.306  12.5418  13.2398   0.00   0.00   0.00
 18020.52400  -3.100  12.0787  12.7666   0.00   0.00   0.00
 18020.52400  -1.810  12.0787  12.7666   0.00   0.00   0.00
 18020.80400  -3.530  12.0788  12.7666   0.00   0.00   0.00
 18020.80400  -1.790  12.0788  12.7666   0.00   0.00   0.00
 18020.80400  -0.460  12.0788  12.7666   0.00   0.00   0.00
 18020.83000   0.033  12.0787  12.7666   0.00   0.00   0.00
 18020.83000   0.899  12.0787  12.7666   0.00   0.00   0.00
 18020.83000  -1.143  12.0787  12.7666   0.00   0.00   0.00
 18021.20300  -1.060  12.0788  12.7666   0.00   0.00   0.00
 18021.20300  -2.090  12.0788  12.7666   0.00   0.00   0.00
 18021.21000   0.179  12.0788  12.7666   0.00   0.00   0.00
 18021.21000   0.732  12.0788  12.7666   0.00   0.00   0.00
 18021.21000  -0.842  12.0788  12.7666   0.00   0.00   0.00
 18021.51000   0.158  12.0788  12.7666   0.00   0.00   0.00
 18021.51000   0.537  12.0788  12.7666   0.00   0.00   0.00
 18021.51000  -0.842  12.0788  12.7666   0.00   0.00   0.00
 18021.53800  -1.790  12.0788  12.7666   0.00   0.00   0.00
 18021.84000   0.004  12.0788  12.7666   0.00   0.00   0.00
 18021.84000   0.304  12.0788  12.7666   0.00   0.00   0.00
 18022.00000   0.004  12.0788  12.7666   0.00   0.00   0.00
 18148.96800  -4.700  12.7666  13.4495   0.00   0.00   0.00
 18148.96800  -4.900  12.7666  13.4495   0.00   0.00   0.00
 18149.27700  -3.860  12.7666  13.4495   0.00   0.00   0.00
 18149.27700  -3.870  12.7666  13.4495   0.00   0.00   0.00
 18149.27700  -3.130  12.7666  13.4495   0.00   0.00   0.00
 18149.27700  -2.960  12.7666  13.4495   0.00   0.00   0.00
 18149.27700  -2.880  12.7666  13.4495   0.00   0.00   0.00
 18170.40900  -2.760  12.7666  13.4487   0.00   0.00   0.00
 18170.40900  -4.330  12.7666  13.4487   0.00   0.00   0.00
 18170.40900  -3.320  12.7666  13.4487   0.00   0.00   0.00
 18170.40900  -3.490  12.7666  13.4487   0.00   0.00   0.00
 18170.40900  -3.490  12.7666  13.4487   0.00   0.00   0.00
 18170.40900  -3.190  12.7666  13.4487   0.00   0.00   0.00
 18170.40900  -3.460  12.7666  13.4487   0.00   0.00   0.00
 18170.40900  -2.590  12.7666  13.4487   0.00   0.00   0.00
 18170.40900  -4.330  12.7666  13.4487   0.00   0.00   0.00
 18170.40900  -3.330  12.7666  13.4487   0.00   0.00   0.00
 18170.40900  -2.960  12.7666  13.4487   0.00   0.00   0.00
 18170.40900  -4.640  12.7666  13.4487   0.00   0.00   0.00
 18170.71900  -4.890  12.7666  13.4487   0.00   0.00   0.00
 18170.71900  -4.580  12.7666  13.4487   0.00   0.00   0.00
 18229.01000  -1.071  12.3590  13.0390   0.00   0.00   0.00
 18229.23000  -0.849  12.3590  13.0390   0.00   0.00   0.00
 18230.14000  -1.549  12.3590  13.0390   0.00   0.00   0.00
 18243.31000   0.491  12.0871  12.7666   0.00   0.00   0.00
 18243.62300  -2.450  12.0871  12.7666   0.00   0.00   0.00
 18243.62300  -1.780  12.0871  12.7666   0.00   0.00   0.00
 18243.63000   0.661  12.0872  12.7666   0.00   0.00   0.00
 18243.63000  -0.241  12.0872  12.7666   0.00   0.00   0.00
 18243.84000   0.820  12.0872  12.7666   0.00   0.00   0.00
 18243.84000  -0.242  12.0872  12.7666   0.00   0.00   0.00
 18243.84000  -1.791  12.0872  12.7666   0.00   0.00   0.00
 18243.85600  -1.400  12.0872  12.7666   0.00   0.00   0.00
 18243.85600  -2.130  12.0872  12.7666   0.00   0.00   0.00
 18243.85600  -1.320  12.0872  12.7666   0.00   0.00   0.00
 18244.15500  -1.870  12.0872  12.7666   0.00   0.00   0.00
 18244.15500  -0.670  12.0872  12.7666   0.00   0.00   0.00
 18244.15500  -0.970  12.0872  12.7666   0.00   0.00   0.00
 19428.20500  -4.460  12.7666  13.4046   0.00   0.00   0.00
 19428.20500  -4.660  12.7666  13.4046   0.00   0.00   0.00
 19428.56000  -2.640  12.7666  13.4046   0.00   0.00   0.00
 19428.56000  -3.620  12.7666  13.4046   0.00   0.00   0.00
 19428.56000  -3.630  12.7666  13.4046   0.00   0.00   0.00
 19428.56000  -2.720  12.7666  13.4046   0.00   0.00   0.00
 19428.56000  -2.890  12.7666  13.4046   0.00   0.00   0.00
 19458.10000  -3.290  12.7666  13.4036   0.00   0.00   0.00
 19458.11000  -2.989  12.7666  13.4036   0.00   0.00   0.00
 19458.11000  -3.290  12.7666  13.4036   0.00   0.00   0.00
 19458.13000  -2.755  12.7666  13.4036   0.00   0.00   0.00
 19458.13000  -3.135  12.7666  13.4036   0.00   0.00   0.00
 19458.13000  -4.135  12.7666  13.4036   0.00   0.00   0.00
 19458.17000  -2.561  12.7666  13.4036   0.00   0.00   0.00
 19458.17000  -3.115  12.7666  13.4036   0.00   0.00   0.00
 19458.17000  -4.136  12.7666  13.4036   0.00   0.00   0.00
 19458.18000  -2.395  12.7666  13.4036   0.00   0.00   0.00
 19458.18000  -3.262  12.7666  13.4036   0.00   0.00   0.00
 19458.18000  -4.437  12.7666  13.4036   0.00   0.00   0.00
 19458.49100  -4.660  12.7666  13.4036   0.00   0.00   0.00
 19458.52100  -4.340  12.7666  13.4036   0.00   0.00   0.00
 19580.43100  -2.310  12.8481  13.4811   0.00   0.00   0.00
 19580.43100  -2.060  12.8481  13.4811   0.00   0.00   0.00
 19580.43100  -1.960  12.8481  13.4811   0.00   0.00   0.00
 19581.80000  -2.430  12.8481  13.4811   0.00   0.00   0.00
 19581.80000  -1.840  12.8481  13.4811   0.00   0.00   0.00
 19581.80000  -1.640  12.8481  13.4811   0.00   0.00   0.00
 19583.71800  -2.780  12.8482  13.4811   0.00   0.00   0.00
 19583.71800  -1.350  12.8482  13.4811   0.00   0.00   0.00
 19583.71800  -1.940  12.8482  13.4811   0.00   0.00   0.00
 20544.59400  -2.410  12.8784  13.4817   0.00   0.00   0.00
 20544.59400  -1.660  12.8784  13.4817   0.00   0.00   0.00
 20544.59400  -3.580  12.8784  13.4817   0.00   0.00   0.00
 20544.84800  -2.410  12.8784  13.4817   0.00   0.00   0.00
 20544.84800  -1.930  12.8784  13.4817   0.00   0.00   0.00
 20545.79400  -2.280  12.8784  13.4817   0.00   0.00   0.00
 20636.56200  -1.870  12.8481  13.4487   0.00   0.00   0.00
 20636.56200  -2.110  12.8481  13.4487   0.00   0.00   0.00
 20636.56200  -1.760  12.8481  13.4487   0.00   0.00   0.00
 20638.08300  -1.440  12.8481  13.4487   0.00   0.00   0.00
 20638.08300  -2.230  12.8481  13.4487   0.00   0.00   0.00
 20638.08300  -1.640  12.8481  13.4487   0.00   0.00   0.00
 20640.21300  -1.150  12.8482  13.4487   0.00   0.00   0.00
 20640.21300  -1.740  12.8482  13.4487   0.00   0.00   0.00
 20640.21300  -2.590  12.8482  13.4487   0.00   0.00   0.00
 21137.52000  -0.236  12.7538  13.3402   0.00   0.00   0.00
 21137.52000  -1.102  12.7538  13.3402   0.00   0.00   0.00
 21137.52000  -2.276  12.7538  13.3402   0.00   0.00   0.00
 21137.70000  -0.402  12.7538  13.3402   0.00   0.00   0.00
 21137.70000  -0.956  12.7538  13.3402   0.00   0.00   0.00
 21137.70000  -1.977  12.7538  13.3402   0.00   0.00   0.00
 21137.96000  -0.596  12.7538  13.3402   0.00   0.00   0.00
 21137.96000  -0.976  12.7538  13.3402   0.00   0.00   0.00
 21137.96000  -1.976  12.7538  13.3402   0.00   0.00   0.00
 21138.18000  -0.830  12.7538  13.3402   0.00   0.00   0.00
 21138.18000  -1.131  12.7538  13.3402   0.00   0.00   0.00
 21138.29000  -1.131  12.7539  13.3402   0.00   0.00   0.00
 21330.81700  -0.331  12.7591  13.3402   0.00   0.00   0.00
 21330.81700  -1.393  12.7591  13.3402   0.00   0.00   0.00
 21330.81700  -2.943  12.7591  13.3402   0.00   0.00   0.00
 21331.13700  -0.491  12.7592  13.3402   0.00   0.00   0.00
 21331.13700  -1.391  12.7592  13.3402   0.00   0.00   0.00
 21331.16600  -3.700  12.7592  13.3402   0.00   0.00   0.00
 21331.34700  -0.662  12.7592  13.3402   0.00   0.00   0.00
 21331.37500  -3.300  12.7592  13.3402   0.00   0.00   0.00
 21664.77500  -4.300  12.7666  13.3387   0.00   0.00   0.00
 21664.77500  -4.090  12.7666  13.3387   0.00   0.00   0.00
 21664.77500  -4.810  12.7666  13.3387   0.00   0.00   0.00
 21665.21700  -4.800  12.7666  13.3387   0.00   0.00   0.00
 21665.21700  -2.530  12.7666  13.3387   0.00   0.00   0.00
 21665.21700  -2.270  12.7666  13.3387   0.00   0.00   0.00
 21665.21700  -3.260  12.7666  13.3387   0.00   0.00   0.00
 21665.21700  -3.260  12.7666  13.3387   0.00   0.00   0.00
 21665.21700  -2.360  12.7666  13.3387   0.00   0.00   0.00
 21701.43900  -2.160  12.8784  13.4495   0.00   0.00   0.00
 21701.43900  -3.340  12.8784  13.4495   0.00   0.00   0.00
 21701.43900  -1.410  12.8784  13.4495   0.00   0.00   0.00
 21701.72100  -1.680  12.8784  13.4495   0.00   0.00   0.00
 21701.72100  -2.160  12.8784  13.4495   0.00   0.00   0.00
 21702.77700  -2.030  12.8784  13.4495   0.00   0.00   0.00
 21708.38500  -2.975  12.7666  13.3376   0.00   0.00   0.00
 21708.39500  -2.674  12.7666  13.3376   0.00   0.00   0.00
 21708.39500  -2.975  12.7666  13.3376   0.00   0.00   0.00
 21708.44500  -2.439  12.7666  13.3376   0.00   0.00   0.00
 21708.44500  -2.820  12.7666  13.3376   0.00   0.00   0.00
 21708.44500  -3.820  12.7666  13.3376   0.00   0.00   0.00
 21708.49500  -2.245  12.7666  13.3376   0.00   0.00   0.00
 21708.49500  -2.799  12.7666  13.3376   0.00   0.00   0.00
 21708.49500  -3.821  12.7666  13.3376   0.00   0.00   0.00
 21708.53500  -2.079  12.7666  13.3375   0.00   0.00   0.00
 21708.53500  -2.946  12.7666  13.3375   0.00   0.00   0.00
 21708.53500  -4.121  12.7666  13.3375   0.00   0.00   0.00
 21708.84200  -4.930  12.7666  13.3376   0.00   0.00   0.00
 21708.88400  -4.340  12.7666  13.3376   0.00   0.00   0.00
 21708.93600  -4.030  12.7666  13.3376   0.00   0.00   0.00
 21708.93600  -4.700  12.7666  13.3376   0.00   0.00   0.00
 21708.97400  -4.720  12.7666  13.3375   0.00   0.00   0.00
 22313.64500  -1.850  12.8481  13.4036   0.00   0.00   0.00
 22313.65900  -1.500  12.8481  13.4036   0.00   0.00   0.00
 22313.68900  -1.610  12.8481  13.4036   0.00   0.00   0.00
 22315.43800  -1.980  12.8481  13.4036   0.00   0.00   0.00
 22315.46700  -1.390  12.8481  13.4036   0.00   0.00   0.00
 22315.50700  -1.180  12.8481  13.4036   0.00   0.00   0.00
 22317.95800  -2.330  12.8482  13.4036   0.00   0.00   0.00
 22317.99800  -1.480  12.8482  13.4036   0.00   0.00   0.00
 22318.02300  -0.900  12.8482  13.4036   0.00   0.00   0.00
 23215.36400  -1.498  12.5393  13.0732   0.00   0.00   0.00
 23215.36400  -2.560  12.5393  13.0732   0.00   0.00   0.00
 23215.36400  -4.110  12.5393  13.0732   0.00   0.00   0.00
 23280.88600  -1.659  12.5408  13.0732   0.00   0.00   0.00
 23280.88600  -2.561  12.5408  13.0732   0.00   0.00   0.00
 23323.76500  -1.831  12.5418  13.0732   0.00   0.00   0.00
 23556.07100  -1.140  12.8784  13.4046   0.00   0.00   0.00
 23556.07100  -3.060  12.8784  13.4046   0.00   0.00   0.00
 23556.07100  -1.890  12.8784  13.4046   0.00   0.00   0.00
 23556.40400  -1.410  12.8784  13.4046   0.00   0.00   0.00
 23556.40400  -1.890  12.8784  13.4046   0.00   0.00   0.00
 23557.64700  -1.760  12.8784  13.4046   0.00   0.00   0.00
 25323.94900  -1.520  12.8481  13.3376   0.00   0.00   0.00
 25323.97500  -1.160  12.8481  13.3376   0.00   0.00   0.00
 25324.03200  -1.270  12.8481  13.3376   0.00   0.00   0.00
 25326.26500  -1.640  12.8481  13.3376   0.00   0.00   0.00
 25326.32300  -1.050  12.8481  13.3376   0.00   0.00   0.00
 25326.39300  -0.850  12.8481  13.3376   0.00   0.00   0.00
 25329.53100  -1.990  12.8482  13.3376   0.00   0.00   0.00
 25329.60200  -1.150  12.8482  13.3376   0.00   0.00   0.00
 25329.65300  -0.560  12.8482  13.3375   0.00   0.00   0.00
 25505.49600  -2.500  12.7538  13.2398   0.00   0.00   0.00
 25505.49600  -1.430  12.7538  13.2398   0.00   0.00   0.00
 25505.49600  -4.040  12.7538  13.2398   0.00   0.00   0.00
 25505.50100   0.167  12.7538  13.2398   0.00   0.00   0.00
 25505.50100  -0.698  12.7538  13.2398   0.00   0.00   0.00
 25505.50100  -1.876  12.7538  13.2398   0.00   0.00   0.00
 25505.76000   0.001  12.7538  13.2398   0.00   0.00   0.00
 25505.76000  -0.553  12.7538  13.2398   0.00   0.00   0.00
 25505.76000  -1.574  12.7538  13.2398   0.00   0.00   0.00
 25505.88000  -1.800  12.7538  13.2398   0.00   0.00   0.00
 25505.88000  -2.700  12.7538  13.2398   0.00   0.00   0.00
 25506.15000  -0.194  12.7538  13.2398   0.00   0.00   0.00
 25506.15000  -0.574  12.7538  13.2398   0.00   0.00   0.00
 25506.15000  -1.574  12.7538  13.2398   0.00   0.00   0.00
 25506.19900  -2.420  12.7538  13.2398   0.00   0.00   0.00
 25506.47000  -0.428  12.7538  13.2398   0.00   0.00   0.00
 25506.47000  -0.729  12.7538  13.2398   0.00   0.00   0.00
 25506.62000  -0.729  12.7539  13.2398   0.00   0.00   0.00
 25787.25400   0.080  12.7591  13.2398   0.00   0.00   0.00
 25787.25400  -0.983  12.7591  13.2398   0.00   0.00   0.00
 25787.25400  -2.532  12.7591  13.2398   0.00   0.00   0.00
 25787.52700  -1.530  12.7591  13.2398   0.00   0.00   0.00
 25787.52700  -2.080  12.7591  13.2398   0.00   0.00   0.00
 25787.52700  -3.100  12.7591  13.2398   0.00   0.00   0.00
 25787.71400  -0.080  12.7592  13.2398   0.00   0.00   0.00
 25787.71400  -0.982  12.7592  13.2398   0.00   0.00   0.00
 25787.98600  -2.300  12.7592  13.2398   0.00   0.00   0.00
 25787.98600  -1.920  12.7592  13.2398   0.00   0.00   0.00
 25787.98600  -3.300  12.7592  13.2398   0.00   0.00   0.00
 25788.02400  -0.253  12.7592  13.2398   0.00   0.00   0.00
 25788.29200  -2.600  12.7592  13.2398   0.00   0.00   0.00
 25788.29200  -2.910  12.7592  13.2398   0.00   0.00   0.00
 26201.91100  -4.323  12.2861  12.7592   0.00   0.00   0.00
 26206.99900  -3.214  12.2862  12.7591   0.00   0.00   0.00
 26325.55700  -2.910  12.7666  13.2374   0.00   0.00   0.00
 26325.55700  -3.490  12.7666  13.2374   0.00   0.00   0.00
 26325.55700  -3.430  12.7666  13.2374   0.00   0.00   0.00
 26325.55700  -3.570  12.7666  13.2374   0.00   0.00   0.00
 26325.55700  -2.650  12.7666  13.2374   0.00   0.00   0.00
 26325.55700  -2.580  12.7666  13.2374   0.00   0.00   0.00
 26325.55700  -2.070  12.7666  13.2374   0.00   0.00   0.00
 26325.55700  -3.860  12.7666  13.2374   0.00   0.00   0.00
 26326.20800  -2.010  12.7666  13.2374   0.00   0.00   0.00
 26326.20800  -4.540  12.7666  13.2374   0.00   0.00   0.00
 26326.20800  -3.030  12.7666  13.2374   0.00   0.00   0.00
 26326.20800  -2.090  12.7666  13.2374   0.00   0.00   0.00
 26326.20800  -2.900  12.7666  13.2374   0.00   0.00   0.00
 26326.20800  -2.110  12.7666  13.2374   0.00   0.00   0.00
 26425.13000  -2.531  12.7666  13.2356   0.00   0.00   0.00
 26425.17000  -2.231  12.7666  13.2356   0.00   0.00   0.00
 26425.17000  -2.531  12.7666  13.2356   0.00   0.00   0.00
 26425.26000  -1.995  12.7666  13.2356   0.00   0.00   0.00
 26425.26000  -2.376  12.7666  13.2356   0.00   0.00   0.00
 26425.26000  -3.376  12.7666  13.2356   0.00   0.00   0.00
 26425.38000  -1.802  12.7666  13.2356   0.00   0.00   0.00
 26425.38000  -2.354  12.7666  13.2356   0.00   0.00   0.00
 26425.38000  -3.376  12.7666  13.2356   0.00   0.00   0.00
 26425.45000  -1.636  12.7666  13.2356   0.00   0.00   0.00
 26425.45000  -2.501  12.7666  13.2356   0.00   0.00   0.00
 26425.45000  -3.677  12.7666  13.2356   0.00   0.00   0.00
 26425.83100  -3.260  12.7666  13.2356   0.00   0.00   0.00
 26425.92200  -3.520  12.7666  13.2356   0.00   0.00   0.00
 26425.92200  -2.580  12.7666  13.2356   0.00   0.00   0.00
 26426.03300  -4.760  12.7666  13.2356   0.00   0.00   0.00
 26426.03300  -3.180  12.7666  13.2356   0.00   0.00   0.00
 26426.03300  -2.150  12.7666  13.2356   0.00   0.00   0.00
 26426.11000  -4.280  12.7666  13.2356   0.00   0.00   0.00
 26498.91000  -0.168  12.2861  12.7539   0.00   0.00   0.00
 26499.08000   0.185  12.2861  12.7538   0.00   0.00   0.00
 26499.42000   0.076  12.2861  12.7538   0.00   0.00   0.00
 26503.80900  -0.293  12.2862  12.7538   0.00   0.00   0.00
 26504.14800   0.297  12.2862  12.7538   0.00   0.00   0.00
 26504.56800   0.501  12.2862  12.7538   0.00   0.00   0.00
 26512.55600  -0.646  12.2863  12.7538   0.00   0.00   0.00
 26512.96600   0.201  12.2863  12.7538   0.00   0.00   0.00
 26513.25600   0.786  12.2863  12.7538   0.00   0.00   0.00
 26926.43900  -0.800  12.8784  13.3387   0.00   0.00   0.00
 26926.43900  -1.550  12.8784  13.3387   0.00   0.00   0.00
 26926.43900  -2.730  12.8784  13.3387   0.00   0.00   0.00
 26926.87400  -1.070  12.8784  13.3387   0.00   0.00   0.00
 26926.87400  -1.550  12.8784  13.3387   0.00   0.00   0.00
 26928.49800  -1.430  12.8784  13.3387   0.00   0.00   0.00
 27224.51600  -1.160  12.6610  13.1163   0.00   0.00   0.00
 27226.45100  -1.300  12.6610  13.1163   0.00   0.00   0.00
 27227.66700  -1.520  12.6610  13.1162   0.00   0.00   0.00
 27631.21100   0.537  11.8377  12.2863   0.00   0.00   0.00
 27640.34900   0.391  11.8377  12.2862   0.00   0.00   0.00
 27645.48800   0.169  11.8377  12.2861   0.00   0.00   0.00
 28563.34200  -1.230  12.6976  13.1316   0.00   0.00   0.00
 28563.34200  -1.930  12.6976  13.1316   0.00   0.00   0.00
 28563.34200  -1.460  12.6976  13.1316   0.00   0.00   0.00
 28925.11900  -0.289  11.9305  12.3590   0.00   0.00   0.00
 28927.29800   0.410  11.9305  12.3590   0.00   0.00   0.00
 28927.96800   0.189  11.9305  12.3590   0.00   0.00   0.00
 30346.48400  -2.450  13.0732  13.4817   0.00   0.00   0.00
 30346.48400  -2.620  13.0732  13.4817   0.00   0.00   0.00
 30346.48400  -2.290  13.0732  13.4817   0.00   0.00   0.00
 30346.48400  -3.360  13.0732  13.4817   0.00   0.00   0.00
 30346.48400  -4.900  13.0732  13.4817   0.00   0.00   0.00
 30346.48400  -3.360  13.0732  13.4817   0.00   0.00   0.00
 30388.18700  -3.010  13.0732  13.4811   0.00   0.00   0.00
 30388.18700  -2.510  13.0732  13.4811   0.00   0.00   0.00
 30388.18700  -4.190  13.0732  13.4811   0.00   0.00   0.00
 30388.18700  -2.740  13.0732  13.4811   0.00   0.00   0.00
 30388.18700  -3.040  13.0732  13.4811   0.00   0.00   0.00
 30388.18700  -3.890  13.0732  13.4811   0.00   0.00   0.00
 30388.18700  -3.040  13.0732  13.4811   0.00   0.00   0.00
 30388.18700  -2.150  13.0732  13.4811   0.00   0.00   0.00
 30388.18700  -2.870  13.0732  13.4811   0.00   0.00   0.00
 30388.18700  -2.890  13.0732  13.4811   0.00   0.00   0.00
 30388.18700  -3.890  13.0732  13.4811   0.00   0.00   0.00
 30388.18700  -2.320  13.0732  13.4811   0.00   0.00   0.00
 30975.08000  -0.043  12.3590  12.7592   0.00   0.00   0.00
 30975.52000   0.435  12.3590  12.7592   0.00   0.00   0.00
 30975.86000  -1.219  12.3590  12.7592   0.00   0.00   0.00
 30976.30000  -0.043  12.3590  12.7592   0.00   0.00   0.00
 30976.96000   0.706  12.3590  12.7591   0.00   0.00   0.00
 30978.36000   0.082  12.3590  12.7592   0.00   0.00   0.00
 31392.17700  -4.619  12.3590  12.7538   0.00   0.00   0.00
 31392.97700  -4.272  12.3590  12.7538   0.00   0.00   0.00
 31393.55600  -3.142  12.3590  12.7538   0.00   0.00   0.00
 31395.05600  -4.556  12.3590  12.7538   0.00   0.00   0.00
 32940.20500  -2.420  13.0732  13.4495   0.00   0.00   0.00
 32940.20500  -3.150  13.0732  13.4495   0.00   0.00   0.00
 32940.20500  -2.250  13.0732  13.4495   0.00   0.00   0.00
 32940.20500  -2.090  13.0732  13.4495   0.00   0.00   0.00
 32940.20500  -4.700  13.0732  13.4495   0.00   0.00   0.00
 32940.20500  -3.150  13.0732  13.4495   0.00   0.00   0.00
 33010.04300  -3.640  13.0732  13.4487   0.00   0.00   0.00
 33010.04300  -2.490  13.0732  13.4487   0.00   0.00   0.00
 33010.04300  -2.640  13.0732  13.4487   0.00   0.00   0.00
 33010.04300  -2.790  13.0732  13.4487   0.00   0.00   0.00
 33010.04300  -2.790  13.0732  13.4487   0.00   0.00   0.00
 33010.04300  -2.260  13.0732  13.4487   0.00   0.00   0.00
 33010.04300  -2.620  13.0732  13.4487   0.00   0.00   0.00
 33010.04300  -3.640  13.0732  13.4487   0.00   0.00   0.00
 33010.04300  -3.940  13.0732  13.4487   0.00   0.00   0.00
 33010.04300  -1.900  13.0732  13.4487   0.00   0.00   0.00
 33010.04300  -2.070  13.0732  13.4487   0.00   0.00   0.00
 33010.04300  -2.760  13.0732  13.4487   0.00   0.00   0.00
 33062.72200  -0.045  12.2861  12.6610   0.00   0.00   0.00
 33070.08000   0.179  12.2862  12.6610   0.00   0.00   0.00
 33083.16600   0.324  12.2863  12.6610   0.00   0.00   0.00
 33283.67100  -1.325  12.7591  13.1316   0.00   0.00   0.00
 33284.43100  -2.072  12.7592  13.1316   0.00   0.00   0.00
 33284.43100  -3.249  12.7592  13.1316   0.00   0.00   0.00
 33284.94100  -1.948  12.7592  13.1316   0.00   0.00   0.00
 33284.94100  -2.072  12.7592  13.1316   0.00   0.00   0.00
 33968.87100  -1.640  13.1162  13.4811   0.00   0.00   0.00
 33968.87100  -1.990  13.1162  13.4811   0.00   0.00   0.00
 33968.87100  -1.750  13.1162  13.4811   0.00   0.00   0.00
 33970.76400  -2.120  13.1163  13.4811   0.00   0.00   0.00
 33970.76400  -1.320  13.1163  13.4811   0.00   0.00   0.00
 33970.76400  -1.530  13.1163  13.4811   0.00   0.00   0.00
 33973.77700  -2.470  13.1163  13.4811   0.00   0.00   0.00
 33973.77700  -1.040  13.1163  13.4811   0.00   0.00   0.00
 33973.77700  -1.620  13.1163  13.4811   0.00   0.00   0.00
 34198.00200  -1.894  12.7538  13.1163   0.00   0.00   0.00
 34198.48200  -2.478  12.7538  13.1163   0.00   0.00   0.00
 34199.17200  -3.324  12.7538  13.1163   0.00   0.00   0.00
 34201.53100  -2.178  12.7538  13.1163   0.00   0.00   0.00
 34202.23100  -2.382  12.7538  13.1163   0.00   0.00   0.00
 34202.80100  -2.970  12.7538  13.1163   0.00   0.00   0.00
 34204.14100  -2.604  12.7538  13.1162   0.00   0.00   0.00
 34204.72000  -2.495  12.7538  13.1162   0.00   0.00   0.00
 34205.00000  -2.847  12.7539  13.1162   0.00   0.00   0.00
 34241.92800  -0.940  12.8481  13.2101   0.00   0.00   0.00
 34246.11500  -0.720  12.8481  13.2101   0.00   0.00   0.00
 34251.98200  -0.570  12.8482  13.2101   0.00   0.00   0.00
 34850.80400  -4.248  11.9305  12.2862   0.00   0.00   0.00
 34858.98200  -4.588  11.9305  12.2861   0.00   0.00   0.00
 35400.24400  -1.910  13.1316  13.4817   0.00   0.00   0.00
 35400.24400  -2.040  13.1316  13.4817   0.00   0.00   0.00
 35400.24400  -1.560  13.1316  13.4817   0.00   0.00   0.00
 35400.24400  -1.290  13.1316  13.4817   0.00   0.00   0.00
 35400.24400  -2.040  13.1316  13.4817   0.00   0.00   0.00
 35400.24400  -3.210  13.1316  13.4817   0.00   0.00   0.00
 36248.71900  -0.720  12.8784  13.2203   0.00   0.00   0.00
 36249.50700  -0.940  12.8784  13.2203   0.00   0.00   0.00
 36252.45200  -1.420  12.8784  13.2203   0.00   0.00   0.00
 36558.96900  -1.657  12.5393  12.8784   0.00   0.00   0.00
 36606.27600  -0.013  12.3590  12.6976   0.00   0.00   0.00
 36607.36600   0.208  12.3590  12.6976   0.00   0.00   0.00
 36610.84500  -0.491  12.3590  12.6976   0.00   0.00   0.00
 36720.90500  -3.583  12.5408  12.8784   0.00   0.00   0.00
 36721.71500  -2.407  12.5408  12.8784   0.00   0.00   0.00
 36824.67600  -2.283  12.5418  12.8784   0.00   0.00   0.00
 36827.71600  -2.409  12.5418  12.8784   0.00   0.00   0.00
 37278.65200  -1.510  13.1162  13.4487   0.00   0.00   0.00
 37278.65200  -1.750  13.1162  13.4487   0.00   0.00   0.00
 37278.65200  -1.400  13.1162  13.4487   0.00   0.00   0.00
 37280.93200  -1.280  13.1163  13.4487   0.00   0.00   0.00
 37280.93200  -1.080  13.1163  13.4487   0.00   0.00   0.00
 37280.93200  -1.870  13.1163  13.4487   0.00   0.00   0.00
 37284.56100  -1.380  13.1163  13.4487   0.00   0.00   0.00
 37284.56100  -0.790  13.1163  13.4487   0.00   0.00   0.00
 37284.56100  -2.230  13.1163  13.4487   0.00   0.00   0.00
 37411.08100  -1.950  13.0732  13.4046   0.00   0.00   0.00
 37411.08100  -2.850  13.0732  13.4046   0.00   0.00   0.00
 37411.08100  -1.790  13.0732  13.4046   0.00   0.00   0.00
 37411.08100  -4.390  13.0732  13.4046   0.00   0.00   0.00
 37411.08100  -2.850  13.0732  13.4046   0.00   0.00   0.00
 37411.08100  -2.120  13.0732  13.4046   0.00   0.00   0.00
 37520.97900  -2.490  13.0732  13.4036   0.00   0.00   0.00
 37521.02100  -2.490  13.0732  13.4036   0.00   0.00   0.00
 37521.02100  -2.190  13.0732  13.4036   0.00   0.00   0.00
 37521.10500  -3.340  13.0732  13.4036   0.00   0.00   0.00
 37521.10500  -2.340  13.0732  13.4036   0.00   0.00   0.00
 37521.10500  -1.960  13.0732  13.4036   0.00   0.00   0.00
 37521.21800  -1.760  13.0732  13.4036   0.00   0.00   0.00
 37521.21800  -2.320  13.0732  13.4036   0.00   0.00   0.00
 37521.21800  -3.340  13.0732  13.4036   0.00   0.00   0.00
 37521.28800  -3.640  13.0732  13.4036   0.00   0.00   0.00
 37521.28800  -2.460  13.0732  13.4036   0.00   0.00   0.00
 37521.28800  -1.600  13.0732  13.4036   0.00   0.00   0.00
 38806.62500  -1.830  12.7538  13.0732   0.00   0.00   0.00
 38806.62500  -3.380  12.7538  13.0732   0.00   0.00   0.00
 38806.62500  -0.770  12.7538  13.0732   0.00   0.00   0.00
 38807.19600   0.823  12.7538  13.0732   0.00   0.00   0.00
 38807.19600  -0.042  12.7538  13.0732   0.00   0.00   0.00
 38807.19600  -1.218  12.7538  13.0732   0.00   0.00   0.00
 38807.51400  -2.040  12.7538  13.0732   0.00   0.00   0.00
 38807.51400  -1.140  12.7538  13.0732   0.00   0.00   0.00
 38807.81600   0.105  12.7538  13.0732   0.00   0.00   0.00
 38807.81600   0.658  12.7538  13.0732   0.00   0.00   0.00
 38807.81600  -0.918  12.7538  13.0732   0.00   0.00   0.00
 38808.25200  -1.750  12.7538  13.0732   0.00   0.00   0.00
 38808.70600   0.082  12.7538  13.0732   0.00   0.00   0.00
 38808.70600   0.464  12.7538  13.0732   0.00   0.00   0.00
 38808.70600  -0.916  12.7538  13.0732   0.00   0.00   0.00
 38809.44600   0.229  12.7538  13.0732   0.00   0.00   0.00
 38809.44600  -0.072  12.7538  13.0732   0.00   0.00   0.00
 38809.80500  -0.072  12.7539  13.0732   0.00   0.00   0.00
 38980.75500  -1.750  13.1316  13.4495   0.00   0.00   0.00
 38980.75500  -2.930  13.1316  13.4495   0.00   0.00   0.00
 38980.75500  -1.010  13.1316  13.4495   0.00   0.00   0.00
 38980.75500  -1.630  13.1316  13.4495   0.00   0.00   0.00
 38980.75500  -1.750  13.1316  13.4495   0.00   0.00   0.00
 38980.75500  -1.280  13.1316  13.4495   0.00   0.00   0.00
 39462.65800   0.757  12.7591  13.0732   0.00   0.00   0.00
 39462.65800  -0.305  12.7591  13.0732   0.00   0.00   0.00
 39462.65800  -1.853  12.7591  13.0732   0.00   0.00   0.00
 39463.73700   0.597  12.7592  13.0732   0.00   0.00   0.00
 39463.73700  -0.304  12.7592  13.0732   0.00   0.00   0.00
 39463.89300  -0.880  12.7591  13.0732   0.00   0.00   0.00
 39463.89300  -1.440  12.7591  13.0732   0.00   0.00   0.00
 39463.89300  -2.460  12.7591  13.0732   0.00   0.00   0.00
 39464.45700   0.427  12.7592  13.0732   0.00   0.00   0.00
 39464.96800  -2.660  12.7592  13.0732   0.00   0.00   0.00
 39464.96800  -1.660  12.7592  13.0732   0.00   0.00   0.00
 39464.96800  -1.280  12.7592  13.0732   0.00   0.00   0.00
 39465.68400  -1.960  12.7592  13.0732   0.00   0.00   0.00
 39465.68400  -2.260  12.7592  13.0732   0.00   0.00   0.00
 40959.69200  -3.150  12.7666  13.0692   0.00   0.00   0.00
 40959.69200  -2.950  12.7666  13.0692   0.00   0.00   0.00
 40959.69200  -3.660  12.7666  13.0692   0.00   0.00   0.00
 40959.69200  -4.500  12.7666  13.0692   0.00   0.00   0.00
 40959.69200  -4.110  12.7666  13.0692   0.00   0.00   0.00
 40961.26900  -2.060  12.7666  13.0692   0.00   0.00   0.00
 40961.26900  -2.060  12.7666  13.0692   0.00   0.00   0.00
 40961.26900  -1.160  12.7666  13.0692   0.00   0.00   0.00
 40961.26900  -3.600  12.7666  13.0692   0.00   0.00   0.00
 40961.26900  -1.330  12.7666  13.0692   0.00   0.00   0.00
 40961.26900  -1.070  12.7666  13.0692   0.00   0.00   0.00
 41358.90100  -1.782  12.7666  13.0663   0.00   0.00   0.00
 41359.12100  -1.480  12.7666  13.0663   0.00   0.00   0.00
 41359.12100  -1.781  12.7666  13.0663   0.00   0.00   0.00
 41359.58100  -1.247  12.7666  13.0663   0.00   0.00   0.00
 41359.58100  -1.627  12.7666  13.0663   0.00   0.00   0.00
 41359.58100  -2.627  12.7666  13.0663   0.00   0.00   0.00
 41360.13000  -1.053  12.7666  13.0663   0.00   0.00   0.00
 41360.13000  -1.606  12.7666  13.0663   0.00   0.00   0.00
 41360.13000  -2.628  12.7666  13.0663   0.00   0.00   0.00
 41360.53000  -0.887  12.7666  13.0663   0.00   0.00   0.00
 41360.53000  -1.752  12.7666  13.0663   0.00   0.00   0.00
 41360.53000  -2.928  12.7666  13.0663   0.00   0.00   0.00
 41360.73200  -3.780  12.7666  13.0663   0.00   0.00   0.00
 41361.19400  -3.920  12.7666  13.0663   0.00   0.00   0.00
 41361.19400  -3.200  12.7666  13.0663   0.00   0.00   0.00
 41361.74200  -3.530  12.7666  13.0663   0.00   0.00   0.00
 41361.74200  -2.870  12.7666  13.0663   0.00   0.00   0.00
 41361.74200  -4.900  12.7666  13.0663   0.00   0.00   0.00
 41362.13500  -3.520  12.7666  13.0663   0.00   0.00   0.00
 41362.13500  -4.820  12.7666  13.0663   0.00   0.00   0.00
 43135.14800  -1.420  13.1162  13.4036   0.00   0.00   0.00
 43135.20400  -1.070  13.1162  13.4036   0.00   0.00   0.00
 43135.31600  -1.180  13.1162  13.4036   0.00   0.00   0.00
 43138.25600  -1.550  13.1163  13.4036   0.00   0.00   0.00
 43138.36800  -0.960  13.1163  13.4036   0.00   0.00   0.00
 43138.51700  -0.750  13.1163  13.4036   0.00   0.00   0.00
 43143.22700  -1.900  13.1163  13.4036   0.00   0.00   0.00
 43143.37600  -1.050  13.1163  13.4036   0.00   0.00   0.00
 43143.46900  -0.470  13.1163  13.4036   0.00   0.00   0.00
 45240.91400  -0.700  13.0663  13.3402   0.00   0.00   0.00
 45240.91400  -1.870  13.0663  13.3402   0.00   0.00   0.00
 45240.91400   0.170  13.0663  13.3402   0.00   0.00   0.00
 45241.24100  -4.210  13.0663  13.3402   0.00   0.00   0.00
 45241.38400   0.000  13.0663  13.3402   0.00   0.00   0.00
 45241.38400  -0.550  13.0663  13.3402   0.00   0.00   0.00
 45241.38400  -1.570  13.0663  13.3402   0.00   0.00   0.00
 45241.89600  -4.440  13.0663  13.3402   0.00   0.00   0.00
 45242.04000  -1.570  13.0663  13.3402   0.00   0.00   0.00
 45242.04000  -0.570  13.0663  13.3402   0.00   0.00   0.00
 45242.04000  -0.190  13.0663  13.3402   0.00   0.00   0.00
 45242.44900  -4.980  13.0663  13.3402   0.00   0.00   0.00
 45242.59200  -0.730  13.0663  13.3402   0.00   0.00   0.00
 45242.59200  -0.430  13.0663  13.3402   0.00   0.00   0.00
 45242.85900  -0.730  13.0663  13.3402   0.00   0.00   0.00
 45401.51900  -1.410  13.1316  13.4046   0.00   0.00   0.00
 45401.51900  -1.410  13.1316  13.4046   0.00   0.00   0.00
 45401.51900  -1.280  13.1316  13.4046   0.00   0.00   0.00
 45401.51900  -0.930  13.1316  13.4046   0.00   0.00   0.00
 45401.51900  -0.660  13.1316  13.4046   0.00   0.00   0.00
 45401.51900  -2.580  13.1316  13.4046   0.00   0.00   0.00
 45588.63800  -0.512  12.0871  12.3590   0.00   0.00   0.00
 45594.04700  -1.813  12.0871  12.3590   0.00   0.00   0.00
 45595.49600  -0.637  12.0872  12.3590   0.00   0.00   0.00
 45595.72600  -0.638  12.0871  12.3590   0.00   0.00   0.00
 45597.18600  -0.160  12.0872  12.3590   0.00   0.00   0.00
 45597.37600   0.111  12.0872  12.3590   0.00   0.00   0.00
 45730.27500  -0.070  13.0692  13.3402   0.00   0.00   0.00
 45730.27500  -0.970  13.0692  13.3402   0.00   0.00   0.00
 45730.27500  -0.970  13.0692  13.3402   0.00   0.00   0.00
 45730.27500   0.090  13.0692  13.3402   0.00   0.00   0.00
 45730.27500  -0.240  13.0692  13.3402   0.00   0.00   0.00
 45730.27500  -2.520  13.0692  13.3402   0.00   0.00   0.00
 45730.42100  -4.950  13.0692  13.3402   0.00   0.00   0.00
 45730.42100  -4.860  13.0692  13.3402   0.00   0.00   0.00
 45730.42100  -4.570  13.0692  13.3402   0.00   0.00   0.00
 45730.42100  -4.300  13.0692  13.3402   0.00   0.00   0.00
 46693.25700  -1.640  13.0732  13.3387   0.00   0.00   0.00
 46693.25700  -1.470  13.0732  13.3387   0.00   0.00   0.00
 46693.25700  -2.370  13.0732  13.3387   0.00   0.00   0.00
 46693.25700  -1.310  13.0732  13.3387   0.00   0.00   0.00
 46693.25700  -3.920  13.0732  13.3387   0.00   0.00   0.00
 46693.25700  -2.370  13.0732  13.3387   0.00   0.00   0.00
 46894.54100  -2.060  13.0732  13.3376   0.00   0.00   0.00
 46894.62900  -2.060  13.0732  13.3376   0.00   0.00   0.00
 46894.62900  -1.760  13.0732  13.3376   0.00   0.00   0.00
 46894.82700  -1.900  13.0732  13.3376   0.00   0.00   0.00
 46894.82700  -2.900  13.0732  13.3376   0.00   0.00   0.00
 46894.82700  -1.520  13.0732  13.3376   0.00   0.00   0.00
 46895.06900  -1.880  13.0732  13.3376   0.00   0.00   0.00
 46895.06900  -1.330  13.0732  13.3376   0.00   0.00   0.00
 46895.06900  -2.900  13.0732  13.3376   0.00   0.00   0.00
 46895.24500  -2.030  13.0732  13.3375   0.00   0.00   0.00
 46895.24500  -3.200  13.0732  13.3375   0.00   0.00   0.00
 46895.24500  -1.160  13.0732  13.3375   0.00   0.00   0.00
 51244.44600  -2.110  13.2398  13.4817   0.00   0.00   0.00
 51244.44600  -1.780  13.2398  13.4817   0.00   0.00   0.00
 51244.44600  -4.380  13.2398  13.4817   0.00   0.00   0.00
 51244.44600  -2.840  13.2398  13.4817   0.00   0.00   0.00
 51244.44600  -1.940  13.2398  13.4817   0.00   0.00   0.00
 51244.44600  -2.840  13.2398  13.4817   0.00   0.00   0.00
 51364.47800  -3.680  13.2398  13.4811   0.00   0.00   0.00
 51364.47800  -1.810  13.2398  13.4811   0.00   0.00   0.00
 51364.47800  -3.380  13.2398  13.4811   0.00   0.00   0.00
 51364.47800  -2.000  13.2398  13.4811   0.00   0.00   0.00
 51364.47800  -3.380  13.2398  13.4811   0.00   0.00   0.00
 51364.47800  -2.360  13.2398  13.4811   0.00   0.00   0.00
 51364.47800  -2.380  13.2398  13.4811   0.00   0.00   0.00
 51364.47800  -2.540  13.2398  13.4811   0.00   0.00   0.00
 51364.47800  -1.640  13.2398  13.4811   0.00   0.00   0.00
 51364.47800  -2.510  13.2398  13.4811   0.00   0.00   0.00
 51364.47800  -2.240  13.2398  13.4811   0.00   0.00   0.00
 51364.47800  -2.540  13.2398  13.4811   0.00   0.00   0.00
 54542.40800  -1.198  12.5393  12.7666   0.00   0.00   0.00
 54542.40800  -2.260  12.5393  12.7666   0.00   0.00   0.00
 54542.40800  -3.808  12.5393  12.7666   0.00   0.00   0.00
 54905.42900  -1.360  12.5408  12.7666   0.00   0.00   0.00
 54905.42900  -2.262  12.5408  12.7666   0.00   0.00   0.00
 55144.56300  -1.531  12.5418  12.7666   0.00   0.00   0.00
 56004.72100  -0.950  13.1162  13.3376   0.00   0.00   0.00
 56004.84700  -0.600  13.1162  13.3376   0.00   0.00   0.00
 56005.12900  -0.700  13.1162  13.3376   0.00   0.00   0.00
 56009.99300  -1.070  13.1163  13.3376   0.00   0.00   0.00
 56010.27500  -0.480  13.1163  13.3376   0.00   0.00   0.00
 56010.62000  -0.280  13.1163  13.3376   0.00   0.00   0.00
 56018.46600  -1.420  13.1163  13.3376   0.00   0.00   0.00
 56018.81200  -0.580  13.1163  13.3376   0.00   0.00   0.00
 56019.06300   0.010  13.1163  13.3375   0.00   0.00   0.00
 59103.04400  -2.570  13.2398  13.4495   0.00   0.00   0.00
 59103.04400  -2.570  13.2398  13.4495   0.00   0.00   0.00
 59103.04400  -1.840  13.2398  13.4495   0.00   0.00   0.00
 59103.04400  -4.120  13.2398  13.4495   0.00   0.00   0.00
 59103.04400  -1.670  13.2398  13.4495   0.00   0.00   0.00
 59103.04400  -1.510  13.2398  13.4495   0.00   0.00   0.00
 59329.59500  -1.690  13.2398  13.4487   0.00   0.00   0.00
 59329.59500  -2.070  13.2398  13.4487   0.00   0.00   0.00
 59329.59500  -2.220  13.2398  13.4487   0.00   0.00   0.00
 59329.59500  -2.220  13.2398  13.4487   0.00   0.00   0.00
 59329.59500  -3.070  13.2398  13.4487   0.00   0.00   0.00
 59329.59500  -3.070  13.2398  13.4487   0.00   0.00   0.00
 59329.59500  -1.490  13.2398  13.4487   0.00   0.00   0.00
 59329.59500  -1.920  13.2398  13.4487   0.00   0.00   0.00
 59329.59500  -2.190  13.2398  13.4487   0.00   0.00   0.00
 59329.59500  -2.040  13.2398  13.4487   0.00   0.00   0.00
 59329.59500  -1.330  13.2398  13.4487   0.00   0.00   0.00
 59329.59500  -3.370  13.2398  13.4487   0.00   0.00   0.00
 59713.51800   0.158  12.0787  12.2863   0.00   0.00   0.00
 59716.51700  -0.429  12.0788  12.2863   0.00   0.00   0.00
 59720.91600  -1.274  12.0788  12.2863   0.00   0.00   0.00
 59759.20600  -0.128  12.0788  12.2862   0.00   0.00   0.00
 59763.60400  -0.332  12.0788  12.2862   0.00   0.00   0.00
 59767.30300  -0.922  12.0788  12.2862   0.00   0.00   0.00
 59787.69800  -0.553  12.0788  12.2861   0.00   0.00   0.00
 59791.39700  -0.445  12.0788  12.2861   0.00   0.00   0.00
 59793.09600  -0.797  12.0788  12.2861   0.00   0.00   0.00
 59837.18700  -0.790  13.1316  13.3387   0.00   0.00   0.00
 59837.18700  -0.910  13.1316  13.3387   0.00   0.00   0.00
 59837.18700  -0.160  13.1316  13.3387   0.00   0.00   0.00
 59837.18700  -0.430  13.1316  13.3387   0.00   0.00   0.00
 59837.18700  -2.090  13.1316  13.3387   0.00   0.00   0.00
 59837.18700  -0.910  13.1316  13.3387   0.00   0.00   0.00
 62284.31700  -4.303  12.0872  12.2862   0.00   0.00   0.00
 66210.92800   0.640  12.6610  12.8482   0.00   0.00   0.00
 66232.86100   0.500  12.6610  12.8481   0.00   0.00   0.00
 66248.53000   0.280  12.6610  12.8481   0.00   0.00   0.00
 68556.32600  -0.190  12.6976  12.8784   0.00   0.00   0.00
 68566.85800   0.290  12.6976  12.8784   0.00   0.00   0.00
 68569.68000   0.510  12.6976  12.8784   0.00   0.00   0.00
 71418.08000  -3.590  13.0663  13.2398   0.00   0.00   0.00
 71418.08000  -4.660  13.0663  13.2398   0.00   0.00   0.00
 71418.99800  -0.100  13.0663  13.2398   0.00   0.00   0.00
 71418.99800  -1.280  13.0663  13.2398   0.00   0.00   0.00
 71418.99800   0.770  13.0663  13.2398   0.00   0.00   0.00
 71419.71200  -3.820  13.0663  13.2398   0.00   0.00   0.00
 71419.71200  -4.720  13.0663  13.2398   0.00   0.00   0.00
 71420.17100  -0.970  13.0663  13.2398   0.00   0.00   0.00
 71420.17100   0.600  13.0663  13.2398   0.00   0.00   0.00
 71420.17100   0.050  13.0663  13.2398   0.00   0.00   0.00
 71421.09000  -4.370  13.0663  13.2398   0.00   0.00   0.00
 71421.80400   0.030  13.0663  13.2398   0.00   0.00   0.00
 71421.80400  -0.970  13.0663  13.2398   0.00   0.00   0.00
 71421.80400   0.410  13.0663  13.2398   0.00   0.00   0.00
 71423.18200   0.170  13.0663  13.2398   0.00   0.00   0.00
 71423.18200  -0.130  13.0663  13.2398   0.00   0.00   0.00
 71423.84500  -0.130  13.0663  13.2398   0.00   0.00   0.00
 71739.46200   0.110  12.8481  13.0209   0.00   0.00   0.00
 71757.84400   0.330  12.8481  13.0209   0.00   0.00   0.00
 71783.60700   0.480  12.8482  13.0209   0.00   0.00   0.00
 72644.42000   0.370  13.0692  13.2398   0.00   0.00   0.00
 72644.42000   0.540  13.0692  13.2398   0.00   0.00   0.00
 72644.42000  -0.360  13.0692  13.2398   0.00   0.00   0.00
 72644.42000  -1.900  13.0692  13.2398   0.00   0.00   0.00
 72644.42000  -0.360  13.0692  13.2398   0.00   0.00   0.00
 72644.42000   0.700  13.0692  13.2398   0.00   0.00   0.00
 72646.58400  -4.350  13.0692  13.2398   0.00   0.00   0.00
 72646.58400  -3.970  13.0692  13.2398   0.00   0.00   0.00
 72646.58400  -3.710  13.0692  13.2398   0.00   0.00   0.00
 72646.58400  -4.880  13.0692  13.2398   0.00   0.00   0.00
 72646.58400  -4.580  13.0692  13.2398   0.00   0.00   0.00
 72646.58400  -4.260  13.0692  13.2398   0.00   0.00   0.00
 75235.41300  -2.150  13.2398  13.4046   0.00   0.00   0.00
 75235.41300  -1.250  13.2398  13.4046   0.00   0.00   0.00
 75235.41300  -2.150  13.2398  13.4046   0.00   0.00   0.00
 75235.41300  -1.090  13.2398  13.4046   0.00   0.00   0.00
 75235.41300  -1.420  13.2398  13.4046   0.00   0.00   0.00
 75235.41300  -3.690  13.2398  13.4046   0.00   0.00   0.00
 75499.10400  -1.310  13.0732  13.2374   0.00   0.00   0.00
 75499.10400  -2.690  13.0732  13.2374   0.00   0.00   0.00
 75499.10400  -2.020  13.0732  13.2374   0.00   0.00   0.00
 75499.10400  -0.810  13.0732  13.2374   0.00   0.00   0.00
 75499.10400  -1.370  13.0732  13.2374   0.00   0.00   0.00
 75499.10400  -2.390  13.0732  13.2374   0.00   0.00   0.00
 75499.10400  -2.320  13.0732  13.2374   0.00   0.00   0.00
 75499.10400  -1.690  13.0732  13.2374   0.00   0.00   0.00
 75503.60800  -2.040  13.0732  13.2374   0.00   0.00   0.00
 75503.60800  -1.800  13.0732  13.2374   0.00   0.00   0.00
 75503.60800  -3.590  13.0732  13.2374   0.00   0.00   0.00
 75503.60800  -0.980  13.0732  13.2374   0.00   0.00   0.00
 75503.60800  -0.900  13.0732  13.2374   0.00   0.00   0.00
 75503.60800  -0.960  13.0732  13.2374   0.00   0.00   0.00
 75683.37400  -1.800  13.2398  13.4036   0.00   0.00   0.00
 75683.54600  -1.800  13.2398  13.4036   0.00   0.00   0.00
 75683.54600  -1.500  13.2398  13.4036   0.00   0.00   0.00
 75683.89000  -2.640  13.2398  13.4036   0.00   0.00   0.00
 75683.89000  -1.640  13.2398  13.4036   0.00   0.00   0.00
 75683.89000  -1.260  13.2398  13.4036   0.00   0.00   0.00
 75684.34800  -2.640  13.2398  13.4036   0.00   0.00   0.00
 75684.34800  -1.070  13.2398  13.4036   0.00   0.00   0.00
 75684.34800  -1.620  13.2398  13.4036   0.00   0.00   0.00
 75684.63500  -2.940  13.2398  13.4036   0.00   0.00   0.00
 75684.63500  -1.770  13.2398  13.4036   0.00   0.00   0.00
 75684.63500  -0.900  13.2398  13.4036   0.00   0.00   0.00
 76323.86800  -1.320  13.0732  13.2356   0.00   0.00   0.00
 76324.27600  -1.070  13.0732  13.2356   0.00   0.00   0.00
 76324.27600  -1.370  13.0732  13.2356   0.00   0.00   0.00
 76325.03300  -2.320  13.0732  13.2356   0.00   0.00   0.00
 76325.03300  -1.320  13.0732  13.2356   0.00   0.00   0.00
 76325.03300  -0.940  13.0732  13.2356   0.00   0.00   0.00
 76325.96600  -0.990  13.0732  13.2356   0.00   0.00   0.00
 76325.96600  -1.550  13.0732  13.2356   0.00   0.00   0.00
 76325.96600  -2.570  13.0732  13.2356   0.00   0.00   0.00
 76326.60700  -0.430  13.0732  13.2356   0.00   0.00   0.00
 76326.60700  -1.290  13.0732  13.2356   0.00   0.00   0.00
 76326.60700  -2.470  13.0732  13.2356   0.00   0.00   0.00
 76328.87900  -1.920  13.0732  13.2356   0.00   0.00   0.00
 76329.63700  -1.270  13.0732  13.2356   0.00   0.00   0.00
 76329.63700  -2.170  13.0732  13.2356   0.00   0.00   0.00
 76330.57000  -0.810  13.0732  13.2356   0.00   0.00   0.00
 76330.57000  -1.870  13.0732  13.2356   0.00   0.00   0.00
 76330.57000  -3.420  13.0732  13.2356   0.00   0.00   0.00
 77183.29400   0.350  12.8784  13.0390   0.00   0.00   0.00
 77186.87000   0.130  12.8784  13.0390   0.00   0.00   0.00
 77200.22100  -0.350  12.8784  13.0390   0.00   0.00   0.00
 87622.13900  -1.280  13.3402  13.4817   0.00   0.00   0.00
 87622.13900  -2.350  13.3402  13.4817   0.00   0.00   0.00
 87622.13900  -1.440  13.3402  13.4817   0.00   0.00   0.00
 87622.13900  -1.610  13.3402  13.4817   0.00   0.00   0.00
 87622.13900  -3.890  13.3402  13.4817   0.00   0.00   0.00
 87622.13900  -2.350  13.3402  13.4817   0.00   0.00   0.00
 87976.29500  -1.890  13.3402  13.4811   0.00   0.00   0.00
 87976.29500  -2.890  13.3402  13.4811   0.00   0.00   0.00
 87976.29500  -3.190  13.3402  13.4811   0.00   0.00   0.00
 87976.29500  -1.510  13.3402  13.4811   0.00   0.00   0.00
 87976.29500  -2.040  13.3402  13.4811   0.00   0.00   0.00
 87976.29500  -2.040  13.3402  13.4811   0.00   0.00   0.00
 87976.29500  -1.870  13.3402  13.4811   0.00   0.00   0.00
 87976.29500  -2.890  13.3402  13.4811   0.00   0.00   0.00
 87976.29500  -1.740  13.3402  13.4811   0.00   0.00   0.00
 87976.29500  -1.150  13.3402  13.4811   0.00   0.00   0.00
 87976.29500  -1.310  13.3402  13.4811   0.00   0.00   0.00
 87976.29500  -2.010  13.3402  13.4811   0.00   0.00   0.00
