#  Wav (A)    log gf    E (l, u) (eV)    rad    stark  waals
  1621.97000  -5.767   0.0000   7.6441   3.73   1.49  -5.15
  1621.98200  -5.750   0.0000   7.6441   3.75   1.46  -5.16
  1621.99500  -5.734   0.0000   7.6440   3.77   1.43  -5.17
  1622.00800  -5.717   0.0000   7.6440   3.78   1.40  -5.18
  1622.02100  -5.700   0.0000   7.6439   3.80   1.37  -5.19
  1622.03500  -5.683   0.0000   7.6438   3.82   1.34  -5.20
  1622.05000  -5.665   0.0000   7.6438   3.83   1.32  -5.21
  1622.06500  -5.647   0.0000   7.6437   3.85   1.29  -5.22
  1622.08100  -5.629   0.0000   7.6436   3.87   1.25  -5.23
  1622.09700  -5.611   0.0000   7.6435   3.89   1.22  -5.24
  1622.11400  -5.593   0.0000   7.6434   3.91   1.19  -5.25
  1622.13200  -5.574   0.0000   7.6434   3.93   1.16  -5.26
  1622.15100  -5.555   0.0000   7.6433   3.94   1.13  -5.27
  1622.17100  -5.536   0.0000   7.6432   3.96   1.10  -5.28
  1622.19100  -5.516   0.0000   7.6431   3.98   1.06  -5.29
  1622.21300  -5.496   0.0000   7.6430   4.00   1.03  -5.30
  1622.23600  -5.476   0.0000   7.6429   4.02   0.99  -5.31
  1622.25900  -5.455   0.0000   7.6428   4.04   0.96  -5.32
  1622.28400  -5.435   0.0000   7.6426   4.07   0.92  -5.33
  1622.31000  -5.413   0.0000   7.6425   4.09   0.89  -5.34
  1622.33800  -5.392   0.0000   7.6424   4.11   0.85  -5.35
  1622.36300  -5.370   0.0000   7.6423   4.13   0.82  -5.37
  1622.39500  -5.348   0.0000   7.6421   4.15   0.78  -5.38
  1622.42300  -5.325   0.0000   7.6420   4.17   0.74  -5.39
  1622.45800  -5.302   0.0000   7.6418   4.20   0.70  -5.40
  1622.49600  -5.278   0.0000   7.6417   4.22   0.66  -5.42
  1622.53400  -5.255   0.0000   7.6415   4.25   0.62  -5.43
  1622.57100  -5.230   0.0000   7.6413   4.27   0.58  -5.44
  1622.61400  -5.205   0.0000   7.6411   4.29   0.54  -5.46
  1622.66100  -5.180   0.0000   7.6409   4.32   0.49  -5.47
  1622.70600  -5.154   0.0000   7.6407   4.35   0.45  -5.48
  1622.75800  -5.128   0.0000   7.6404   4.37   0.40  -5.50
  1622.81200  -5.101   0.0000   7.6402   4.40   0.36  -5.51
  1622.87000  -5.074   0.0000   7.6399   4.43   0.31  -5.53
  1622.93200  -5.046   0.0000   7.6396   4.45   0.26  -5.54
  1622.99700  -5.017   0.0000   7.6393   4.48   0.21  -5.56
  1623.06900  -4.988   0.0000   7.6390   4.51   0.16  -5.57
  1623.14300  -4.958   0.0000   7.6386   4.54   0.11  -5.59
  1623.22500  -4.927   0.0000   7.6382   4.57   0.06  -5.61
  1623.31200  -4.896   0.0000   7.6378   4.60   0.01  -5.62
  1623.40600  -4.864   0.0000   7.6374   4.64  -0.05  -5.64
  1623.50800  -4.831   0.0000   7.6369   4.67  -0.10  -5.66
  1623.61900  -4.797   0.0000   7.6364   4.70  -0.16  -5.68
  1623.73700  -4.762   0.0000   7.6358   4.74  -0.22  -5.70
  1623.86900  -4.726   0.0000   7.6352   4.77  -0.28  -5.72
  1624.01000  -4.690   0.0000   7.6345   4.81  -0.35  -5.74
  1624.16500  -4.652   0.0000   7.6338   4.85  -0.41  -5.76
  1624.33400  -4.613   0.0000   7.6330   4.89  -0.48  -5.78
  1624.52000  -4.573   0.0000   7.6321   4.93  -0.55  -5.80
  1624.72700  -4.531   0.0000   7.6312   4.97  -0.62  -5.82
  1624.95300  -4.489   0.0000   7.6301   5.01  -0.69  -5.85
  1625.20400  -4.445   0.0000   7.6289   5.06  -0.77  -5.87
  1625.48400  -4.399   0.0000   7.6276   5.10  -0.85  -5.90
  1625.79800  -4.351   0.0000   7.6261   5.15  -0.93  -5.92
  1626.15100  -4.302   0.0000   7.6245   5.20  -1.01  -5.95
  1626.54900  -4.251   0.0000   7.6226   5.25  -1.10  -5.98
  1627.00000  -4.198   0.0000   7.6205   5.30  -1.20  -6.01
  1627.51400  -4.143   0.0000   7.6181   5.36  -1.29  -6.04
  1628.10400  -4.085   0.0000   7.6153   5.42  -1.39  -6.07
  1628.78600  -4.024   0.0000   7.6121   5.48  -1.50  -6.11
  1629.57900  -3.960   0.0000   7.6084   5.54  -1.61  -6.14
  1630.50900  -3.894   0.0000   7.6041   5.61  -1.73  -6.18
  1631.60900  -3.823   0.0000   7.5990   5.68  -1.85  -6.22
  1632.92400  -3.749   0.0000   7.5929   5.75  -1.99  -6.26
  1634.51500  -3.670   0.0000   7.5855   5.83  -2.13  -6.31
  1636.46500  -3.586   0.0000   7.5764   5.91  -2.28  -6.36
  1638.88900  -3.496   0.0000   7.5652   6.00  -2.44  -6.41
  1641.95700  -3.399   0.0000   7.5511   6.10  -2.61  -6.46
  1645.92400  -3.295   0.0000   7.5329   6.20  -2.80  -6.52
  1651.16400  -3.182   0.0000   7.5090   6.32  -3.01  -6.59
  1658.31200  -3.057   0.0000   7.4766   6.44  -3.24  -6.66
  1668.42900  -2.920   0.0000   7.4313   0.00   0.00   0.00
  1683.41160  -2.620   0.0000   7.3651   0.00   0.00   0.00
  1707.06060  -2.367   0.0000   7.2631   0.00   0.00   0.00
  1710.07300  -7.060   0.0000   7.2503   0.00   0.00   0.00
  1747.79370  -2.041   0.0000   7.0938   0.00   0.00   0.00
  1753.84100  -6.780   0.0000   7.0694   0.00   0.00   0.00
  1827.93510  -1.620   0.0000   6.7828   7.61   0.00   0.00
  1843.31500  -7.202   0.0000   6.7262   6.65   0.00   0.00
  2025.82420  -0.947   0.0000   6.1183   0.00   0.00   0.00
  2084.53500 -19.849   0.0000   5.9460   0.00   0.00   0.00
  2084.53700 -11.462   0.0000   5.9460   0.00   0.00   0.00
  2089.14900  -8.055   0.0000   5.9328   0.00   0.00   0.00
  2089.44400  -7.000   0.0000   5.9320   0.00   0.00   0.00
  2154.35300  -5.244   0.0000   5.7533   0.00   0.00   0.00
  2511.59200  -3.741   2.7091   7.6442   3.91   1.51  -5.14
  2511.62000  -3.724   2.7091   7.6441   3.93   1.48  -5.15
  2511.63300  -6.085   2.7091   7.6441   3.56   1.47  -5.16
  2511.64900  -3.708   2.7091   7.6441   3.94   1.46  -5.16
  2511.66200  -6.069   2.7091   7.6440   3.58   1.44  -5.17
  2511.67900  -3.691   2.7091   7.6440   3.96   1.43  -5.17
  2511.69300  -6.052   2.7091   7.6440   3.60   1.41  -5.17
  2511.71000  -3.674   2.7091   7.6439   3.98   1.40  -5.18
  2511.72400  -6.035   2.7091   7.6439   3.61   1.39  -5.18
  2511.74200  -3.657   2.7091   7.6439   3.99   1.37  -5.19
  2511.75700  -6.018   2.7091   7.6439   3.63   1.36  -5.19
  2511.77600  -3.639   2.7091   7.6438   4.01   1.34  -5.20
  2511.79200  -6.001   2.7091   7.6438   3.65   1.33  -5.20
  2511.81100  -3.621   2.7091   7.6437   4.03   1.31  -5.21
  2511.82800  -5.983   2.7091   7.6437   3.67   1.30  -5.21
  2511.84800  -3.604   2.7091   7.6437   4.05   1.28  -5.22
  2511.86500  -5.966   2.7091   7.6436   3.68   1.27  -5.22
  2511.88600  -3.585   2.7091   7.6436   4.06   1.25  -5.23
  2511.90400  -5.948   2.7091   7.6436   3.70   1.24  -5.23
  2511.92600  -3.567   2.7091   7.6435   4.08   1.22  -5.24
  2511.94500  -5.929   2.7091   7.6435   3.72   1.21  -5.24
  2511.96700  -3.548   2.7091   7.6434   4.10   1.19  -5.25
  2511.98700  -5.911   2.7091   7.6434   3.74   1.17  -5.25
  2512.01100  -3.529   2.7091   7.6434   4.12   1.16  -5.26
  2512.03100  -5.892   2.7091   7.6433   3.76   1.14  -5.26
  2512.05600  -3.510   2.7091   7.6433   4.14   1.12  -5.27
  2512.07800  -5.873   2.7091   7.6432   3.78   1.11  -5.27
  2512.10400  -3.490   2.7091   7.6432   4.16   1.09  -5.28
  2512.12600  -5.854   2.7091   7.6431   3.80   1.08  -5.28
  2512.15300  -3.470   2.7091   7.6431   4.18   1.06  -5.29
  2512.17700  -5.834   2.7091   7.6430   3.82   1.04  -5.29
  2512.20500  -3.450   2.7091   7.6430   4.20   1.03  -5.30
  2512.23000  -5.814   2.7091   7.6429   3.84   1.01  -5.30
  2512.26000  -3.430   2.7091   7.6429   4.22   0.99  -5.31
  2512.28600  -5.794   2.7091   7.6428   3.86   0.97  -5.32
  2512.31700  -3.409   2.7091   7.6428   4.24   0.96  -5.32
  2512.34400  -5.774   2.7091   7.6427   3.88   0.94  -5.33
  2512.37700  -3.388   2.7091   7.6426   4.26   0.92  -5.33
  2512.40600  -5.750   2.7091   7.6426   3.90   0.90  -5.34
  2512.44000  -3.366   2.7091   7.6425   4.28   0.88  -5.34
  2512.47000  -5.732   2.7091   7.6425   3.92   0.87  -5.35
  2512.50700  -3.344   2.7091   7.6424   4.31   0.85  -5.36
  2512.53800  -5.710   2.7091   7.6423   3.94   0.83  -5.36
  2512.57700  -3.322   2.7091   7.6422   4.33   0.81  -5.37
  2512.61000  -5.688   2.7091   7.6422   3.96   0.79  -5.37
  2512.65000  -3.299   2.7091   7.6421   4.35   0.77  -5.38
  2512.68500  -5.666   2.7091   7.6420   3.98   0.76  -5.39
  2512.72800  -3.276   2.7091   7.6419   4.37   0.73  -5.39
  2512.76500  -5.643   2.7091   7.6419   4.01   0.72  -5.40
  2512.81000  -3.253   2.7091   7.6418   4.40   0.70  -5.40
  2512.84900  -5.620   2.7091   7.6417   4.03   0.68  -5.41
  2512.85900  -3.560   2.7116   7.6442   3.91   1.51  -5.14
  2512.85900  -3.861   2.7116   7.6442   3.91   1.51  -5.14
  2512.87100  -3.871   2.7116   7.6442   3.91   1.50  -5.15
  2512.88600  -3.544   2.7116   7.6441   3.93   1.48  -5.15
  2512.88600  -3.845   2.7116   7.6441   3.93   1.48  -5.15
  2512.89600  -3.229   2.7091   7.6416   4.42   0.66  -5.42
  2512.89900  -3.855   2.7116   7.6441   3.93   1.47  -5.16
  2512.89900  -5.605   2.7116   7.6441   3.56   1.47  -5.16
  2512.91500  -3.527   2.7116   7.6441   3.94   1.46  -5.16
  2512.91500  -3.828   2.7116   7.6441   3.94   1.46  -5.16
  2512.92800  -3.838   2.7116   7.6440   3.94   1.44  -5.17
  2512.92900  -5.589   2.7116   7.6440   3.58   1.44  -5.17
  2512.93700  -5.597   2.7091   7.6415   4.05   0.64  -5.42
  2512.94500  -3.510   2.7116   7.6440   3.96   1.43  -5.17
  2512.94500  -3.811   2.7116   7.6440   3.96   1.43  -5.17
  2512.95900  -3.821   2.7116   7.6440   3.96   1.42  -5.17
  2512.95900  -5.572   2.7116   7.6440   3.60   1.41  -5.17
  2512.97600  -3.493   2.7116   7.6439   3.98   1.40  -5.18
  2512.97600  -3.794   2.7116   7.6439   3.98   1.40  -5.18
  2512.98700  -3.204   2.7091   7.6414   4.45   0.61  -5.43
  2512.99100  -3.804   2.7116   7.6439   3.98   1.39  -5.18
  2512.99100  -5.556   2.7116   7.6439   3.61   1.39  -5.18
  2513.00900  -3.476   2.7116   7.6439   3.99   1.37  -5.19
  2513.00900  -3.777   2.7116   7.6439   3.99   1.37  -5.19
  2513.02400  -3.787   2.7116   7.6439   3.99   1.36  -5.19
  2513.02400  -5.539   2.7116   7.6439   3.63   1.36  -5.19
  2513.03100  -5.573   2.7091   7.6414   4.08   0.60  -5.44
  2513.04300  -3.458   2.7116   7.6438   4.01   1.34  -5.20
  2513.04300  -3.760   2.7116   7.6438   4.01   1.34  -5.20
  2513.05800  -3.769   2.7116   7.6438   4.01   1.33  -5.20
  2513.05900  -5.521   2.7116   7.6438   3.65   1.33  -5.20
  2513.07800  -3.441   2.7116   7.6437   4.03   1.31  -5.21
  2513.07800  -3.742   2.7116   7.6437   4.03   1.31  -5.21
  2513.08400  -3.180   2.7091   7.6412   4.47   0.57  -5.44
  2513.09400  -3.752   2.7116   7.6437   4.03   1.30  -5.21
  2513.09400  -5.504   2.7116   7.6437   3.67   1.30  -5.21
  2513.11400  -3.423   2.7116   7.6437   4.05   1.28  -5.22
  2513.11400  -3.724   2.7116   7.6437   4.05   1.28  -5.22
  2513.13000  -5.549   2.7091   7.6412   4.10   0.55  -5.45
  2513.13100  -3.734   2.7116   7.6436   4.05   1.27  -5.22
  2513.13200  -5.486   2.7116   7.6436   3.68   1.27  -5.22
  2513.15300  -3.405   2.7116   7.6436   4.06   1.25  -5.23
  2513.15300  -3.706   2.7116   7.6436   4.06   1.25  -5.23
  2513.17000  -3.716   2.7116   7.6436   4.06   1.24  -5.23
  2513.17100  -5.468   2.7116   7.6436   3.70   1.24  -5.23
  2513.18700  -3.154   2.7091   7.6410   4.50   0.53  -5.46
  2513.19200  -3.386   2.7116   7.6435   4.08   1.22  -5.24
  2513.19200  -3.687   2.7116   7.6435   4.08   1.22  -5.24
  2513.21100  -3.697   2.7116   7.6435   4.08   1.21  -5.24
  2513.21100  -5.450   2.7116   7.6435   3.72   1.21  -5.24
  2513.23400  -3.367   2.7116   7.6434   4.10   1.19  -5.25
  2513.23400  -3.668   2.7116   7.6434   4.10   1.19  -5.25
  2513.23600  -5.524   2.7091   7.6409   4.13   0.51  -5.46
  2513.25300  -3.678   2.7116   7.6434   4.10   1.17  -5.25
  2513.25400  -5.431   2.7116   7.6434   3.74   1.17  -5.25
  2513.27800  -3.348   2.7116   7.6434   4.12   1.16  -5.26
  2513.27800  -3.649   2.7116   7.6434   4.12   1.16  -5.26
  2513.29600  -3.128   2.7091   7.6408   4.52   0.49  -5.47
  2513.29700  -3.659   2.7116   7.6433   4.12   1.14  -5.26
  2513.29800  -5.413   2.7116   7.6433   3.76   1.14  -5.26
  2513.32300  -3.329   2.7116   7.6433   4.14   1.12  -5.27
  2513.32300  -3.630   2.7116   7.6433   4.14   1.12  -5.27
  2513.34400  -3.640   2.7116   7.6432   4.14   1.11  -5.27
  2513.34500  -5.394   2.7116   7.6432   3.78   1.11  -5.27
  2513.34800  -5.498   2.7091   7.6407   4.15   0.47  -5.48
  2513.37100  -3.309   2.7116   7.6432   4.16   1.09  -5.28
  2513.37100  -3.610   2.7116   7.6432   4.16   1.09  -5.28
  2513.39200  -3.620   2.7116   7.6431   4.16   1.08  -5.28
  2513.39300  -5.374   2.7116   7.6431   3.80   1.08  -5.28
  2513.41100  -3.102   2.7091   7.6406   4.55   0.44  -5.49
  2513.42000  -3.290   2.7116   7.6431   4.18   1.06  -5.29
  2513.42000  -3.591   2.7116   7.6431   4.18   1.06  -5.29
  2513.44300  -3.601   2.7116   7.6430   4.18   1.04  -5.29
  2513.44400  -5.355   2.7116   7.6430   3.82   1.04  -5.29
  2513.46600  -5.473   2.7091   7.6405   4.18   0.42  -5.49
  2513.47200  -3.269   2.7116   7.6430   4.20   1.03  -5.30
  2513.47200  -3.570   2.7116   7.6430   4.20   1.03  -5.30
  2513.49600  -3.580   2.7116   7.6429   4.20   1.01  -5.30
  2513.49700  -5.335   2.7116   7.6429   3.84   1.01  -5.30
  2513.52700  -3.249   2.7116   7.6429   4.22   0.99  -5.31
  2513.52700  -3.550   2.7116   7.6429   4.22   0.99  -5.31
  2513.53400  -3.075   2.7091   7.6404   4.57   0.40  -5.50
  2513.55200  -3.560   2.7116   7.6428   4.22   0.98  -5.31
  2513.55300  -5.315   2.7116   7.6428   3.86   0.97  -5.32
  2513.58400  -3.228   2.7116   7.6428   4.24   0.96  -5.32
  2513.58400  -3.529   2.7116   7.6428   4.24   0.96  -5.32
  2513.59300  -5.446   2.7091   7.6402   4.20   0.38  -5.51
  2513.61000  -3.539   2.7116   7.6427   4.24   0.94  -5.33
  2513.61100  -5.294   2.7116   7.6427   3.88   0.94  -5.33
  2513.64400  -3.207   2.7116   7.6426   4.26   0.92  -5.33
  2513.64400  -3.508   2.7116   7.6426   4.26   0.92  -5.33
  2513.66500  -3.048   2.7091   7.6401   4.60   0.35  -5.51
  2513.67200  -3.518   2.7116   7.6426   4.26   0.90  -5.34
  2513.67300  -5.273   2.7116   7.6426   3.90   0.90  -5.34
  2513.70800  -3.185   2.7116   7.6425   4.28   0.88  -5.34
  2513.70800  -3.486   2.7116   7.6425   4.28   0.88  -5.34
  2513.72800  -5.419   2.7091   7.6400   4.23   0.33  -5.52
  2513.73700  -3.496   2.7116   7.6425   4.28   0.87  -5.35
  2513.73800  -5.252   2.7116   7.6425   3.92   0.87  -5.35
  2513.77400  -3.163   2.7116   7.6424   4.31   0.85  -5.36
  2513.77400  -3.464   2.7116   7.6424   4.31   0.85  -5.36
  2513.80400  -3.020   2.7091   7.6398   4.63   0.31  -5.53
  2513.80400  -3.474   2.7116   7.6423   4.31   0.83  -5.36
  2513.80600  -5.231   2.7116   7.6423   3.94   0.83  -5.36
  2513.84400  -3.141   2.7116   7.6422   4.33   0.81  -5.37
  2513.84400  -3.442   2.7116   7.6422   4.33   0.81  -5.37
  2513.87100  -5.392   2.7091   7.6397   4.26   0.28  -5.54
  2513.87600  -3.452   2.7116   7.6422   4.33   0.79  -5.37
  2513.87700  -5.209   2.7116   7.6422   3.96   0.79  -5.37
  2513.91800  -3.118   2.7116   7.6421   4.35   0.77  -5.38
  2513.91800  -3.419   2.7116   7.6421   4.35   0.77  -5.38
  2513.95100  -3.429   2.7116   7.6420   4.35   0.76  -5.39
  2513.95300  -5.186   2.7116   7.6420   3.98   0.76  -5.39
  2513.95300  -2.991   2.7091   7.6395   4.66   0.26  -5.54
  2513.99500  -3.095   2.7116   7.6419   4.37   0.73  -5.39
  2513.99500  -3.396   2.7116   7.6419   4.37   0.73  -5.39
  2514.02500  -5.364   2.7091   7.6394   4.29   0.24  -5.55
  2514.03100  -3.406   2.7116   7.6419   4.37   0.72  -5.40
  2514.03200  -5.164   2.7116   7.6419   4.01   0.72  -5.40
  2514.07700  -3.072   2.7116   7.6418   4.40   0.70  -5.40
  2514.07700  -3.373   2.7116   7.6418   4.40   0.70  -5.40
  2514.11300  -2.962   2.7091   7.6392   4.69   0.21  -5.56
  2514.11500  -3.383   2.7116   7.6417   4.40   0.68  -5.41
  2514.11600  -5.141   2.7116   7.6417   4.03   0.68  -5.41
  2514.16400  -3.048   2.7116   7.6416   4.42   0.66  -5.42
  2514.16400  -3.349   2.7116   7.6416   4.42   0.66  -5.42
  2514.18900  -5.335   2.7091   7.6391   4.31   0.19  -5.57
  2514.20300  -3.359   2.7116   7.6415   4.42   0.64  -5.42
  2514.20500  -5.117   2.7116   7.6415   4.05   0.64  -5.42
  2514.25500  -3.024   2.7116   7.6414   4.45   0.61  -5.43
  2514.25500  -3.325   2.7116   7.6414   4.45   0.61  -5.43
  2514.28300  -2.932   2.7091   7.6389   4.72   0.16  -5.58
  2514.29700  -3.335   2.7116   7.6414   4.45   0.60  -5.44
  2514.29900  -5.093   2.7116   7.6414   4.08   0.60  -5.44
  2514.35200  -2.999   2.7116   7.6412   4.47   0.57  -5.44
  2514.35200  -3.300   2.7116   7.6412   4.47   0.57  -5.44
  2514.36600  -5.306   2.7091   7.6387   4.34   0.14  -5.58
  2514.39700  -3.310   2.7116   7.6412   4.47   0.55  -5.45
  2514.39800  -5.069   2.7116   7.6412   4.10   0.55  -5.45
  2514.45500  -2.973   2.7116   7.6410   4.50   0.53  -5.46
  2514.45500  -3.275   2.7116   7.6410   4.50   0.53  -5.46
  2514.46600  -2.901   2.7091   7.6385   4.75   0.11  -5.59
  2514.50200  -3.284   2.7116   7.6410   4.50   0.51  -5.46
  2514.50400  -5.044   2.7116   7.6409   4.13   0.51  -5.46
  2514.55500  -5.276   2.7091   7.6384   4.37   0.08  -5.60
  2514.56400  -2.948   2.7116   7.6408   4.52   0.49  -5.47
  2514.56400  -3.249   2.7116   7.6408   4.52   0.49  -5.47
  2514.61400  -3.259   2.7116   7.6407   4.52   0.47  -5.48
  2514.61600  -5.019   2.7116   7.6407   4.15   0.47  -5.48
  2514.66300  -2.870   2.7091   7.6382   4.78   0.05  -5.61
  2514.67900  -2.921   2.7116   7.6406   4.55   0.44  -5.49
  2514.67900  -3.222   2.7116   7.6406   4.55   0.44  -5.49
  2514.73300  -3.232   2.7116   7.6405   4.55   0.42  -5.49
  2514.73500  -4.993   2.7116   7.6405   4.18   0.42  -5.49
  2514.75800  -5.245   2.7091   7.6380   4.40   0.03  -5.62
  2514.80200  -2.895   2.7116   7.6404   4.57   0.40  -5.50
  2514.80200  -3.196   2.7116   7.6404   4.57   0.40  -5.50
  2514.85900  -3.206   2.7116   7.6403   4.57   0.38  -5.51
  2514.86100  -4.967   2.7116   7.6402   4.20   0.38  -5.51
  2514.87500  -2.838   2.7091   7.6377   4.81   0.00  -5.63
  2514.93300  -2.867   2.7116   7.6401   4.60   0.35  -5.51
  2514.93300  -3.168   2.7116   7.6401   4.60   0.35  -5.51
  2514.97700  -5.214   2.7091   7.6375   4.44  -0.02  -5.63
  2514.99400  -3.178   2.7116   7.6400   4.60   0.33  -5.52
  2514.99600  -4.940   2.7116   7.6400   4.23   0.33  -5.52
  2515.07300  -2.839   2.7116   7.6398   4.63   0.31  -5.53
  2515.07300  -3.140   2.7116   7.6398   4.63   0.31  -5.53
  2515.10300  -2.805   2.7091   7.6373   4.84  -0.05  -5.64
  2515.13800  -3.150   2.7116   7.6397   4.63   0.28  -5.54
  2515.14000  -4.912   2.7116   7.6397   4.26   0.28  -5.54
  2515.21400  -5.182   2.7091   7.6371   4.47  -0.08  -5.65
  2515.22200  -2.810   2.7116   7.6395   4.66   0.26  -5.54
  2515.22200  -3.111   2.7116   7.6395   4.66   0.26  -5.54
  2515.29100  -3.121   2.7116   7.6394   4.66   0.24  -5.55
  2515.29400  -4.884   2.7116   7.6394   4.29   0.24  -5.55
  2515.35000  -2.771   2.7091   7.6368   4.88  -0.11  -5.66
  2515.38200  -2.781   2.7116   7.6392   4.69   0.21  -5.56
  2515.38200  -3.082   2.7116   7.6392   4.69   0.21  -5.56
  2515.43300  -3.120   2.7167   7.6442   3.91   1.51  -5.14
  2515.43300  -4.041   2.7167   7.6442   3.91   1.51  -5.14
  2515.43300  -5.041   2.7167   7.6442   3.91   1.51  -5.14
  2515.44500  -4.351   2.7167   7.6442   3.91   1.50  -5.15
  2515.45500  -3.092   2.7116   7.6391   4.69   0.19  -5.57
  2515.45800  -4.856   2.7116   7.6391   4.31   0.19  -5.57
  2515.46100  -3.104   2.7167   7.6441   3.93   1.48  -5.15
  2515.46100  -4.024   2.7167   7.6441   3.93   1.48  -5.15
  2515.46100  -5.024   2.7167   7.6441   3.93   1.48  -5.15
  2515.47000  -5.149   2.7091   7.6366   4.50  -0.14  -5.67
  2515.47300  -4.335   2.7167   7.6441   3.93   1.47  -5.16
  2515.47400  -5.385   2.7167   7.6441   3.56   1.47  -5.16
  2515.49000  -3.087   2.7167   7.6441   3.94   1.46  -5.16
  2515.49000  -4.008   2.7167   7.6441   3.94   1.46  -5.16
  2515.49000  -5.008   2.7167   7.6441   3.94   1.46  -5.16
  2515.50300  -4.318   2.7167   7.6440   3.94   1.44  -5.17
  2515.50300  -5.369   2.7167   7.6440   3.58   1.44  -5.17
  2515.52000  -3.071   2.7167   7.6440   3.96   1.43  -5.17
  2515.52000  -3.991   2.7167   7.6440   3.96   1.43  -5.17
  2515.52000  -4.991   2.7167   7.6440   3.96   1.43  -5.17
  2515.53300  -4.302   2.7167   7.6440   3.96   1.42  -5.17
  2515.53400  -5.352   2.7167   7.6440   3.60   1.41  -5.17
  2515.55100  -3.054   2.7167   7.6439   3.98   1.40  -5.18
  2515.55100  -3.974   2.7167   7.6439   3.98   1.40  -5.18
  2515.55100  -4.974   2.7167   7.6439   3.98   1.40  -5.18
  2515.55300  -2.751   2.7116   7.6389   4.72   0.16  -5.58
  2515.55300  -3.052   2.7116   7.6389   4.72   0.16  -5.58
  2515.56500  -4.285   2.7167   7.6439   3.98   1.39  -5.18
  2515.56600  -5.335   2.7167   7.6439   3.61   1.39  -5.18
  2515.58400  -3.036   2.7167   7.6439   3.99   1.37  -5.19
  2515.58400  -3.957   2.7167   7.6439   3.99   1.37  -5.19
  2515.58400  -4.957   2.7167   7.6439   3.99   1.37  -5.19
  2515.59800  -4.267   2.7167   7.6439   3.99   1.36  -5.19
  2515.59900  -5.318   2.7167   7.6439   3.63   1.36  -5.19
  2515.61700  -2.736   2.7091   7.6363   4.91  -0.17  -5.68
  2515.61700  -3.019   2.7167   7.6438   4.01   1.34  -5.20
  2515.61700  -3.939   2.7167   7.6438   4.01   1.34  -5.20
  2515.61700  -4.939   2.7167   7.6438   4.01   1.34  -5.20
  2515.63200  -3.062   2.7116   7.6387   4.72   0.14  -5.58
  2515.63300  -4.250   2.7167   7.6438   4.01   1.33  -5.20
  2515.63300  -5.301   2.7167   7.6438   3.65   1.33  -5.20
  2515.63500  -4.827   2.7116   7.6387   4.34   0.14  -5.58
  2515.65300  -3.001   2.7167   7.6437   4.03   1.31  -5.21
  2515.65300  -3.922   2.7167   7.6437   4.03   1.31  -5.21
  2515.65300  -4.922   2.7167   7.6437   4.03   1.31  -5.21
  2515.66900  -4.232   2.7167   7.6437   4.03   1.30  -5.21
  2515.66900  -5.283   2.7167   7.6437   3.67   1.30  -5.21
  2515.68900  -2.983   2.7167   7.6437   4.05   1.28  -5.22
  2515.68900  -3.904   2.7167   7.6437   4.05   1.28  -5.22
  2515.68900  -4.904   2.7167   7.6437   4.05   1.28  -5.22
  2515.70600  -4.214   2.7167   7.6436   4.05   1.27  -5.22
  2515.70700  -5.266   2.7167   7.6436   3.68   1.27  -5.22
  2515.72800  -2.965   2.7167   7.6436   4.06   1.25  -5.23
  2515.72800  -3.885   2.7167   7.6436   4.06   1.25  -5.23
  2515.72800  -4.885   2.7167   7.6436   4.06   1.25  -5.23
  2515.73600  -2.721   2.7116   7.6385   4.75   0.11  -5.59
  2515.73600  -3.022   2.7116   7.6385   4.75   0.11  -5.59
  2515.74500  -4.196   2.7167   7.6436   4.06   1.24  -5.23
  2515.74600  -5.248   2.7167   7.6436   3.70   1.24  -5.23
  2515.74700  -5.115   2.7091   7.6360   4.53  -0.20  -5.69
  2515.76800  -2.946   2.7167   7.6435   4.08   1.22  -5.24
  2515.76800  -3.867   2.7167   7.6435   4.08   1.22  -5.24
  2515.76800  -4.867   2.7167   7.6435   4.08   1.22  -5.24
  2515.78600  -4.177   2.7167   7.6435   4.08   1.21  -5.24
  2515.78600  -5.229   2.7167   7.6435   3.72   1.21  -5.24
  2515.80900  -2.928   2.7167   7.6434   4.10   1.19  -5.25
  2515.80900  -3.848   2.7167   7.6434   4.10   1.19  -5.25
  2515.80900  -4.848   2.7167   7.6434   4.10   1.19  -5.25
  2515.82100  -3.032   2.7116   7.6384   4.75   0.08  -5.60
  2515.82400  -4.797   2.7116   7.6384   4.37   0.08  -5.60
  2515.82800  -4.159   2.7167   7.6434   4.10   1.17  -5.25
  2515.82900  -5.211   2.7167   7.6434   3.74   1.17  -5.25
  2515.85300  -2.909   2.7167   7.6434   4.12   1.16  -5.26
  2515.85300  -3.829   2.7167   7.6434   4.12   1.16  -5.26
  2515.85300  -4.829   2.7167   7.6434   4.12   1.16  -5.26
  2515.87300  -4.140   2.7167   7.6433   4.12   1.14  -5.26
  2515.87300  -5.192   2.7167   7.6433   3.76   1.14  -5.26
  2515.89800  -2.889   2.7167   7.6433   4.14   1.12  -5.27
  2515.89800  -3.810   2.7167   7.6433   4.14   1.12  -5.27
  2515.89800  -4.810   2.7167   7.6433   4.14   1.12  -5.27
  2515.90700  -2.700   2.7091   7.6357   4.95  -0.23  -5.70
  2515.91900  -4.120   2.7167   7.6432   4.14   1.11  -5.27
  2515.92000  -5.173   2.7167   7.6432   3.78   1.11  -5.27
  2515.93300  -2.689   2.7116   7.6382   4.78   0.05  -5.61
  2515.93300  -2.990   2.7116   7.6382   4.78   0.05  -5.61
  2515.94600  -2.870   2.7167   7.6432   4.16   1.09  -5.28
  2515.94600  -3.790   2.7167   7.6432   4.16   1.09  -5.28
  2515.94600  -4.790   2.7167   7.6432   4.16   1.09  -5.28
  2515.96800  -4.101   2.7167   7.6431   4.16   1.08  -5.28
  2515.96900  -5.154   2.7167   7.6431   3.80   1.08  -5.28
  2515.99600  -2.850   2.7167   7.6431   4.18   1.06  -5.29
  2515.99600  -3.770   2.7167   7.6431   4.18   1.06  -5.29
  2515.99600  -4.770   2.7167   7.6431   4.18   1.06  -5.29
  2516.01900  -4.081   2.7167   7.6430   4.18   1.04  -5.29
  2516.01900  -5.134   2.7167   7.6430   3.82   1.04  -5.29
  2516.02400  -3.000   2.7116   7.6380   4.78   0.03  -5.62
  2516.02800  -4.766   2.7116   7.6380   4.40   0.03  -5.62
  2516.04800  -2.830   2.7167   7.6430   4.20   1.03  -5.30
  2516.04800  -3.750   2.7167   7.6430   4.20   1.03  -5.30
  2516.04800  -4.750   2.7167   7.6430   4.20   1.03  -5.30
  2516.04800  -5.080   2.7091   7.6354   4.57  -0.26  -5.71
  2516.07200  -4.061   2.7167   7.6429   4.20   1.01  -5.30
  2516.07300  -5.114   2.7167   7.6429   3.84   1.01  -5.30
  2516.10300  -2.809   2.7167   7.6429   4.22   0.99  -5.31
  2516.10300  -3.730   2.7167   7.6429   4.22   0.99  -5.31
  2516.10300  -4.730   2.7167   7.6429   4.22   0.99  -5.31
  2516.12800  -4.040   2.7167   7.6428   4.22   0.98  -5.31
  2516.12900  -5.094   2.7167   7.6428   3.86   0.97  -5.32
  2516.14500  -2.657   2.7116   7.6377   4.81   0.00  -5.63
  2516.14500  -2.958   2.7116   7.6377   4.81   0.00  -5.63
  2516.16000  -2.788   2.7167   7.6428   4.24   0.96  -5.32
  2516.16000  -3.709   2.7167   7.6428   4.24   0.96  -5.32
  2516.16000  -4.709   2.7167   7.6428   4.24   0.96  -5.32
  2516.18600  -4.019   2.7167   7.6427   4.24   0.94  -5.33
  2516.18700  -5.074   2.7167   7.6427   3.88   0.94  -5.33
  2516.22100  -2.767   2.7167   7.6426   4.26   0.92  -5.33
  2516.22100  -3.688   2.7167   7.6426   4.26   0.92  -5.33
  2516.22100  -4.688   2.7167   7.6426   4.26   0.92  -5.33
  2516.22200  -2.664   2.7091   7.6351   4.99  -0.29  -5.72
  2516.24300  -2.968   2.7116   7.6375   4.81  -0.02  -5.63
  2516.24700  -4.735   2.7116   7.6375   4.44  -0.02  -5.63
  2516.24800  -3.998   2.7167   7.6426   4.26   0.90  -5.34
  2516.24900  -5.053   2.7167   7.6426   3.90   0.90  -5.34
  2516.28400  -2.746   2.7167   7.6425   4.28   0.88  -5.34
  2516.28400  -3.666   2.7167   7.6425   4.28   0.88  -5.34
  2516.28400  -4.666   2.7167   7.6425   4.28   0.88  -5.34
  2516.31300  -3.977   2.7167   7.6425   4.28   0.87  -5.35
  2516.31400  -5.032   2.7167   7.6425   3.92   0.87  -5.35
  2516.35000  -2.724   2.7167   7.6424   4.31   0.85  -5.36
  2516.35000  -3.644   2.7167   7.6424   4.31   0.85  -5.36
  2516.35000  -4.644   2.7167   7.6424   4.31   0.85  -5.36
  2516.37300  -2.624   2.7116   7.6373   4.84  -0.05  -5.64
  2516.37300  -2.925   2.7116   7.6373   4.84  -0.05  -5.64
  2516.37600  -5.045   2.7091   7.6348   4.61  -0.32  -5.73
  2516.38100  -3.955   2.7167   7.6423   4.31   0.83  -5.36
  2516.38200  -5.010   2.7167   7.6423   3.94   0.83  -5.36
  2516.42000  -2.701   2.7167   7.6422   4.33   0.81  -5.37
  2516.42000  -3.622   2.7167   7.6422   4.33   0.81  -5.37
  2516.42000  -4.622   2.7167   7.6422   4.33   0.81  -5.37
  2516.45300  -3.932   2.7167   7.6422   4.33   0.79  -5.37
  2516.45400  -4.988   2.7167   7.6422   3.96   0.79  -5.37
  2516.47900  -2.935   2.7116   7.6371   4.84  -0.08  -5.65
  2516.48400  -4.702   2.7116   7.6371   4.47  -0.08  -5.65
  2516.49400  -2.679   2.7167   7.6421   4.35   0.77  -5.38
  2516.49400  -3.599   2.7167   7.6421   4.35   0.77  -5.38
  2516.49400  -4.599   2.7167   7.6421   4.35   0.77  -5.38
  2516.52800  -3.910   2.7167   7.6420   4.35   0.76  -5.39
  2516.52900  -4.966   2.7167   7.6420   3.98   0.76  -5.39
  2516.56600  -2.626   2.7091   7.6344   5.02  -0.35  -5.74
  2516.57200  -2.656   2.7167   7.6419   4.37   0.73  -5.39
  2516.57200  -3.576   2.7167   7.6419   4.37   0.73  -5.39
  2516.57200  -4.576   2.7167   7.6419   4.37   0.73  -5.39
  2516.60800  -3.887   2.7167   7.6419   4.37   0.72  -5.40
  2516.60900  -4.943   2.7167   7.6419   4.01   0.72  -5.40
  2516.62000  -2.590   2.7116   7.6368   4.88  -0.11  -5.66
  2516.62000  -2.891   2.7116   7.6368   4.88  -0.11  -5.66
  2516.65400  -2.632   2.7167   7.6418   4.40   0.70  -5.40
  2516.65400  -3.553   2.7167   7.6418   4.40   0.70  -5.40
  2516.65400  -4.553   2.7167   7.6418   4.40   0.70  -5.40
  2516.69200  -3.863   2.7167   7.6417   4.40   0.68  -5.41
  2516.69300  -4.920   2.7167   7.6417   4.03   0.68  -5.41
  2516.73400  -5.008   2.7091   7.6341   4.64  -0.38  -5.75
  2516.73500  -2.901   2.7116   7.6366   4.88  -0.14  -5.67
  2516.74000  -4.669   2.7116   7.6366   4.50  -0.14  -5.67
  2516.74100  -2.608   2.7167   7.6416   4.42   0.66  -5.42
  2516.74100  -3.529   2.7167   7.6416   4.42   0.66  -5.42
  2516.74100  -4.529   2.7167   7.6416   4.42   0.66  -5.42
  2516.78100  -3.839   2.7167   7.6415   4.42   0.64  -5.42
  2516.78200  -4.897   2.7167   7.6415   4.05   0.64  -5.42
  2516.83300  -2.584   2.7167   7.6414   4.45   0.61  -5.43
  2516.83300  -3.504   2.7167   7.6414   4.45   0.61  -5.43
  2516.83300  -4.504   2.7167   7.6414   4.45   0.61  -5.43
  2516.87500  -3.815   2.7167   7.6414   4.45   0.60  -5.44
  2516.87600  -4.873   2.7167   7.6414   4.08   0.60  -5.44
  2516.88800  -2.555   2.7116   7.6363   4.91  -0.17  -5.68
  2516.88800  -2.856   2.7116   7.6363   4.91  -0.17  -5.68
  2516.93000  -2.559   2.7167   7.6412   4.47   0.57  -5.44
  2516.93000  -3.480   2.7167   7.6412   4.47   0.57  -5.44
  2516.93000  -4.480   2.7167   7.6412   4.47   0.57  -5.44
  2516.94200  -2.587   2.7091   7.6337   5.06  -0.42  -5.76
  2516.97400  -3.790   2.7167   7.6412   4.47   0.55  -5.45
  2516.97600  -4.849   2.7167   7.6412   4.10   0.55  -5.45
  2517.01200  -2.866   2.7116   7.6360   4.91  -0.20  -5.69
  2517.01800  -4.636   2.7116   7.6360   4.53  -0.20  -5.69
  2517.03300  -2.534   2.7167   7.6410   4.50   0.53  -5.46
  2517.03300  -3.454   2.7167   7.6410   4.50   0.53  -5.46
  2517.03300  -4.454   2.7167   7.6410   4.50   0.53  -5.46
  2517.08000  -3.765   2.7167   7.6410   4.50   0.51  -5.46
  2517.08200  -4.824   2.7167   7.6409   4.13   0.51  -5.46
  2517.12600  -4.970   2.7091   7.6333   4.68  -0.45  -5.77
  2517.14200  -2.508   2.7167   7.6408   4.52   0.49  -5.47
  2517.14200  -3.429   2.7167   7.6408   4.52   0.49  -5.47
  2517.14200  -4.429   2.7167   7.6408   4.52   0.49  -5.47
  2517.17800  -2.520   2.7116   7.6357   4.95  -0.23  -5.70
  2517.17800  -2.821   2.7116   7.6357   4.95  -0.23  -5.70
  2517.19200  -3.739   2.7167   7.6407   4.52   0.47  -5.48
  2517.19400  -4.798   2.7167   7.6407   4.15   0.47  -5.48
  2517.25800  -2.482   2.7167   7.6406   4.55   0.44  -5.49
  2517.25800  -3.402   2.7167   7.6406   4.55   0.44  -5.49
  2517.25800  -4.402   2.7167   7.6406   4.55   0.44  -5.49
  2517.31100  -3.713   2.7167   7.6405   4.55   0.42  -5.49
  2517.31300  -4.773   2.7167   7.6405   4.18   0.42  -5.49
  2517.31300  -2.831   2.7116   7.6354   4.95  -0.26  -5.71
  2517.31900  -4.601   2.7116   7.6354   4.57  -0.26  -5.71
  2517.35400  -2.547   2.7091   7.6329   5.10  -0.49  -5.78
  2517.38100  -2.455   2.7167   7.6404   4.57   0.40  -5.50
  2517.38100  -3.375   2.7167   7.6404   4.57   0.40  -5.50
  2517.38100  -4.375   2.7167   7.6404   4.57   0.40  -5.50
  2517.43800  -3.686   2.7167   7.6403   4.57   0.38  -5.51
  2517.44000  -4.746   2.7167   7.6402   4.20   0.38  -5.51
  2517.49400  -2.483   2.7116   7.6351   4.99  -0.29  -5.72
  2517.49400  -2.784   2.7116   7.6351   4.99  -0.29  -5.72
  2517.51200  -2.427   2.7167   7.6401   4.60   0.35  -5.51
  2517.51200  -3.348   2.7167   7.6401   4.60   0.35  -5.51
  2517.51200  -4.348   2.7167   7.6401   4.60   0.35  -5.51
  2517.55600  -4.931   2.7091   7.6325   4.72  -0.52  -5.79
  2517.57300  -3.658   2.7167   7.6400   4.60   0.33  -5.52
  2517.57500  -4.719   2.7167   7.6400   4.23   0.33  -5.52
  2517.64100  -2.794   2.7116   7.6348   4.99  -0.32  -5.73
  2517.64700  -4.565   2.7116   7.6348   4.61  -0.32  -5.73
  2517.65200  -2.399   2.7167   7.6398   4.63   0.31  -5.53
  2517.65200  -3.320   2.7167   7.6398   4.63   0.31  -5.53
  2517.65200  -4.320   2.7167   7.6398   4.63   0.31  -5.53
  2517.71700  -3.630   2.7167   7.6397   4.63   0.28  -5.54
  2517.71900  -4.692   2.7167   7.6397   4.26   0.28  -5.54
  2517.80200  -2.371   2.7167   7.6395   4.66   0.26  -5.54
  2517.80200  -3.291   2.7167   7.6395   4.66   0.26  -5.54
  2517.80200  -4.291   2.7167   7.6395   4.66   0.26  -5.54
  2517.80700  -2.506   2.7091   7.6320   5.14  -0.56  -5.80
  2517.83800  -2.445   2.7116   7.6344   5.02  -0.35  -5.74
  2517.83800  -2.746   2.7116   7.6344   5.02  -0.35  -5.74
  2517.87100  -3.602   2.7167   7.6394   4.66   0.24  -5.55
  2517.87300  -4.664   2.7167   7.6394   4.29   0.24  -5.55
  2517.96100  -2.342   2.7167   7.6392   4.69   0.21  -5.56
  2517.96100  -3.262   2.7167   7.6392   4.69   0.21  -5.56
  2517.96100  -4.262   2.7167   7.6392   4.69   0.21  -5.56
  2517.99900  -2.756   2.7116   7.6341   5.02  -0.38  -5.75
  2518.00600  -4.528   2.7116   7.6341   4.64  -0.38  -5.75
  2518.02900  -4.891   2.7091   7.6316   4.76  -0.59  -5.82
  2518.03500  -3.572   2.7167   7.6391   4.69   0.19  -5.57
  2518.03800  -4.635   2.7167   7.6391   4.31   0.19  -5.57
  2518.13300  -2.312   2.7167   7.6389   4.72   0.16  -5.58
  2518.13300  -3.232   2.7167   7.6389   4.72   0.16  -5.58
  2518.13300  -4.232   2.7167   7.6389   4.72   0.16  -5.58
  2518.21200  -3.542   2.7167   7.6387   4.72   0.14  -5.58
  2518.21400  -2.406   2.7116   7.6337   5.06  -0.42  -5.76
  2518.21400  -2.707   2.7116   7.6337   5.06  -0.42  -5.76
  2518.21500  -4.606   2.7167   7.6387   4.34   0.14  -5.58
  2518.30600  -2.463   2.7091   7.6310   5.19  -0.63  -5.83
  2518.31600  -2.281   2.7167   7.6385   4.75   0.11  -5.59
  2518.31600  -3.201   2.7167   7.6385   4.75   0.11  -5.59
  2518.31600  -4.201   2.7167   7.6385   4.75   0.11  -5.59
  2518.39000  -2.717   2.7116   7.6333   5.06  -0.45  -5.77
  2518.39800  -4.491   2.7116   7.6333   4.68  -0.45  -5.77
  2518.40100  -3.512   2.7167   7.6384   4.75   0.08  -5.60
  2518.40500  -4.576   2.7167   7.6384   4.37   0.08  -5.60
  2518.51400  -2.250   2.7167   7.6382   4.78   0.05  -5.61
  2518.51400  -3.170   2.7167   7.6382   4.78   0.05  -5.61
  2518.51400  -4.170   2.7167   7.6382   4.78   0.05  -5.61
  2518.55200  -4.850   2.7091   7.6305   4.80  -0.66  -5.84
  2518.60500  -3.480   2.7167   7.6380   4.78   0.03  -5.62
  2518.60900  -4.545   2.7167   7.6380   4.40   0.03  -5.62
  2518.62600  -2.366   2.7116   7.6329   5.10  -0.49  -5.78
  2518.62600  -2.667   2.7116   7.6329   5.10  -0.49  -5.78
  2518.72600  -2.217   2.7167   7.6377   4.81   0.00  -5.63
  2518.72600  -3.138   2.7167   7.6377   4.81   0.00  -5.63
  2518.72600  -4.138   2.7167   7.6377   4.81   0.00  -5.63
  2518.81900  -2.677   2.7116   7.6325   5.10  -0.52  -5.79
  2518.82400  -3.448   2.7167   7.6375   4.81  -0.02  -5.63
  2518.82800  -4.452   2.7116   7.6325   4.72  -0.52  -5.79
  2518.82900  -4.514   2.7167   7.6375   4.44  -0.02  -5.63
  2518.85800  -2.419   2.7091   7.6299   5.23  -0.70  -5.85
  2518.95500  -2.184   2.7167   7.6373   4.84  -0.05  -5.64
  2518.95500  -3.105   2.7167   7.6373   4.84  -0.05  -5.64
  2518.95500  -4.105   2.7167   7.6373   4.84  -0.05  -5.64
  2519.06100  -3.415   2.7167   7.6371   4.84  -0.08  -5.65
  2519.06600  -4.482   2.7167   7.6371   4.47  -0.08  -5.65
  2519.07900  -2.325   2.7116   7.6320   5.14  -0.56  -5.80
  2519.07900  -2.626   2.7116   7.6320   5.14  -0.56  -5.80
  2519.13100  -4.807   2.7091   7.6294   4.84  -0.74  -5.86
  2519.20200  -2.151   2.7167   7.6368   4.88  -0.11  -5.66
  2519.20200  -3.071   2.7167   7.6368   4.88  -0.11  -5.66
  2519.20200  -4.071   2.7167   7.6368   4.88  -0.11  -5.66
  2519.29200  -2.636   2.7116   7.6316   5.14  -0.59  -5.81
  2519.30200  -4.412   2.7116   7.6316   4.76  -0.59  -5.82
  2519.31800  -3.381   2.7167   7.6366   4.88  -0.14  -5.67
  2519.32200  -4.449   2.7167   7.6366   4.50  -0.14  -5.67
  2519.47000  -2.116   2.7167   7.6363   4.91  -0.17  -5.68
  2519.47000  -3.036   2.7167   7.6363   4.91  -0.17  -5.68
  2519.47000  -4.036   2.7167   7.6363   4.91  -0.17  -5.68
  2519.47100  -2.373   2.7091   7.6287   5.28  -0.78  -5.88
  2519.57900  -2.282   2.7116   7.6310   5.19  -0.63  -5.83
  2519.57900  -2.583   2.7116   7.6310   5.19  -0.63  -5.83
  2519.59500  -3.347   2.7167   7.6360   4.91  -0.20  -5.69
  2519.60100  -4.415   2.7167   7.6360   4.53  -0.20  -5.69
  2519.76100  -2.080   2.7167   7.6357   4.95  -0.23  -5.70
  2519.76100  -3.001   2.7167   7.6357   4.95  -0.23  -5.70
  2519.76100  -4.001   2.7167   7.6357   4.95  -0.23  -5.70
  2519.77500  -4.763   2.7091   7.6282   4.89  -0.81  -5.89
  2519.81400  -2.593   2.7116   7.6306   5.19  -0.66  -5.84
  2519.82500  -4.370   2.7116   7.6305   4.80  -0.66  -5.84
  2519.89700  -3.311   2.7167   7.6354   4.95  -0.26  -5.71
  2519.90300  -4.380   2.7167   7.6354   4.57  -0.26  -5.71
  2520.07700  -2.043   2.7167   7.6351   4.99  -0.29  -5.72
  2520.07700  -2.964   2.7167   7.6351   4.99  -0.29  -5.72
  2520.07700  -3.964   2.7167   7.6351   4.99  -0.29  -5.72
  2520.13200  -2.238   2.7116   7.6299   5.23  -0.70  -5.85
  2520.13200  -2.539   2.7116   7.6299   5.23  -0.70  -5.85
  2520.15500  -2.326   2.7091   7.6274   5.32  -0.86  -5.90
  2520.22500  -3.274   2.7167   7.6348   4.99  -0.32  -5.73
  2520.23200  -4.345   2.7167   7.6348   4.61  -0.32  -5.73
  2520.39300  -2.549   2.7116   7.6294   5.23  -0.73  -5.86
  2520.40500  -4.328   2.7116   7.6294   4.84  -0.74  -5.86
  2520.42200  -2.006   2.7167   7.6344   5.02  -0.35  -5.74
  2520.42200  -2.926   2.7167   7.6344   5.02  -0.35  -5.74
  2520.42200  -3.926   2.7167   7.6344   5.02  -0.35  -5.74
  2520.49400  -4.717   2.7091   7.6267   4.93  -0.89  -5.91
  2520.58300  -3.237   2.7167   7.6341   5.02  -0.38  -5.75
  2520.59100  -4.308   2.7167   7.6341   4.64  -0.38  -5.75
  2520.74600  -2.192   2.7116   7.6287   5.28  -0.78  -5.88
  2520.74600  -2.493   2.7116   7.6287   5.28  -0.78  -5.88
  2520.79900  -1.967   2.7167   7.6337   5.06  -0.42  -5.76
  2520.79900  -2.887   2.7167   7.6337   5.06  -0.42  -5.76
  2520.79900  -3.887   2.7167   7.6337   5.06  -0.42  -5.76
  2520.91900  -2.276   2.7091   7.6259   5.37  -0.94  -5.93
  2520.97600  -3.198   2.7167   7.6333   5.06  -0.45  -5.77
  2520.98400  -4.270   2.7167   7.6333   4.68  -0.45  -5.77
  2521.03600  -2.503   2.7116   7.6282   5.28  -0.81  -5.89
  2521.05000  -4.283   2.7116   7.6282   4.89  -0.81  -5.89
  2521.21200  -1.927   2.7167   7.6329   5.10  -0.49  -5.78
  2521.21200  -2.847   2.7167   7.6329   5.10  -0.49  -5.78
  2521.21200  -3.847   2.7167   7.6329   5.10  -0.49  -5.78
  2521.30000  -4.670   2.7091   7.6252   4.98  -0.98  -5.94
  2521.40600  -3.158   2.7167   7.6325   5.10  -0.52  -5.79
  2521.41500  -4.231   2.7167   7.6325   4.72  -0.52  -5.79
  2521.43000  -2.145   2.7116   7.6274   5.32  -0.86  -5.90
  2521.43000  -2.446   2.7116   7.6274   5.32  -0.86  -5.90
  2521.66700  -1.885   2.7167   7.6320   5.14  -0.56  -5.80
  2521.66700  -2.806   2.7167   7.6320   5.14  -0.56  -5.80
  2521.66700  -3.806   2.7167   7.6320   5.14  -0.56  -5.80
  2521.75400  -2.456   2.7116   7.6268   5.32  -0.89  -5.91
  2521.77000  -4.238   2.7116   7.6267   4.93  -0.89  -5.91
  2521.77900  -2.225   2.7091   7.6242   5.42  -1.03  -5.96
  2521.88000  -3.116   2.7167   7.6316   5.14  -0.59  -5.81
  2521.89000  -4.191   2.7167   7.6316   4.76  -0.59  -5.82
  2522.16700  -1.843   2.7167   7.6310   5.19  -0.63  -5.83
  2522.16700  -2.763   2.7167   7.6310   5.19  -0.63  -5.83
  2522.16700  -3.763   2.7167   7.6310   5.19  -0.63  -5.83
  2522.19500  -2.096   2.7116   7.6259   5.37  -0.94  -5.93
  2522.19500  -2.397   2.7116   7.6259   5.37  -0.94  -5.93
  2522.20900  -4.621   2.7091   7.6234   5.03  -1.07  -5.97
  2522.40300  -3.073   2.7167   7.6306   5.19  -0.66  -5.84
  2522.41400  -4.150   2.7167   7.6305   4.80  -0.66  -5.84
  2522.55800  -2.407   2.7116   7.6252   5.37  -0.98  -5.94
  2522.57700  -4.190   2.7116   7.6252   4.98  -0.98  -5.94
  2522.72100  -1.798   2.7167   7.6299   5.23  -0.70  -5.85
  2522.72100  -2.719   2.7167   7.6299   5.23  -0.70  -5.85
  2522.72100  -3.719   2.7167   7.6299   5.23  -0.70  -5.85
  2522.75000  -2.172   2.7091   7.6224   5.48  -1.11  -5.98
  2522.98200  -3.029   2.7167   7.6294   5.23  -0.73  -5.86
  2522.99500  -4.107   2.7167   7.6294   4.84  -0.74  -5.86
  2523.05600  -2.045   2.7116   7.6242   5.42  -1.03  -5.96
  2523.05600  -2.346   2.7116   7.6242   5.42  -1.03  -5.96
  2523.23700  -4.570   2.7091   7.6214   5.08  -1.16  -6.00
  2523.33600  -1.753   2.7167   7.6287   5.28  -0.78  -5.88
  2523.33600  -2.673   2.7167   7.6287   5.28  -0.78  -5.88
  2523.33600  -3.673   2.7167   7.6287   5.28  -0.78  -5.88
  2523.43900  -2.356   2.7116   7.6235   5.42  -1.06  -5.97
  2523.48600  -4.141   2.7116   7.6234   5.03  -1.07  -5.97
  2523.62700  -2.984   2.7167   7.6282   5.28  -0.81  -5.89
  2523.64100  -4.063   2.7167   7.6282   4.89  -0.81  -5.89
  2523.85200  -2.117   2.7091   7.6202   5.53  -1.21  -6.01
  2524.02200  -1.705   2.7167   7.6274   5.32  -0.86  -5.90
  2524.02200  -2.626   2.7167   7.6274   5.32  -0.86  -5.90
  2524.02200  -3.626   2.7167   7.6274   5.32  -0.86  -5.90
  2524.02700  -1.991   2.7116   7.6224   5.48  -1.11  -5.98
  2524.02700  -2.292   2.7116   7.6224   5.48  -1.11  -5.98
  2524.34600  -2.936   2.7167   7.6268   5.32  -0.89  -5.91
  2524.36200  -4.017   2.7167   7.6267   4.93  -0.89  -5.91
  2524.40700  -4.516   2.7091   7.6191   5.13  -1.25  -6.03
  2524.45900  -2.302   2.7116   7.6215   5.48  -1.15  -6.00
  2524.51500  -4.090   2.7116   7.6214   5.08  -1.16  -6.00
  2524.78900  -1.656   2.7167   7.6259   5.37  -0.94  -5.93
  2524.78900  -2.577   2.7167   7.6259   5.37  -0.94  -5.93
  2524.78900  -3.577   2.7167   7.6259   5.37  -0.94  -5.93
  2525.11000  -2.059   2.7091   7.6178   5.59  -1.30  -6.04
  2525.13000  -1.936   2.7116   7.6202   5.53  -1.21  -6.01
  2525.13000  -2.237   2.7116   7.6202   5.53  -1.21  -6.01
  2525.15300  -2.887   2.7167   7.6252   5.37  -0.98  -5.94
  2525.17100  -3.970   2.7167   7.6252   4.98  -0.98  -5.94
  2525.65100  -1.605   2.7167   7.6242   5.42  -1.03  -5.96
  2525.65100  -2.525   2.7167   7.6242   5.42  -1.03  -5.96
  2525.65100  -3.525   2.7167   7.6242   5.42  -1.03  -5.96
  2525.67100  -2.247   2.7116   7.6192   5.53  -1.25  -6.03
  2525.68600  -4.037   2.7116   7.6191   5.13  -1.25  -6.03
  2525.74600  -4.461   2.7091   7.6165   5.19  -1.35  -6.06
  2526.03600  -2.836   2.7167   7.6235   5.42  -1.06  -5.97
  2526.08200  -3.921   2.7167   7.6234   5.03  -1.07  -5.97
  2526.39000  -1.878   2.7116   7.6178   5.59  -1.30  -6.04
  2526.39000  -2.179   2.7116   7.6178   5.59  -1.30  -6.04
  2526.55500  -1.998   2.7091   7.6150   5.65  -1.41  -6.08
  2526.62500  -1.552   2.7167   7.6224   5.48  -1.11  -5.98
  2526.62500  -2.472   2.7167   7.6224   5.48  -1.11  -5.98
  2526.62500  -3.472   2.7167   7.6224   5.48  -1.11  -5.98
  2526.94800  -2.189   2.7116   7.6167   5.59  -1.35  -6.06
  2527.02700  -3.981   2.7116   7.6165   5.19  -1.35  -6.06
  2527.05700  -2.783   2.7167   7.6215   5.48  -1.15  -6.00
  2527.11300  -3.870   2.7167   7.6214   5.08  -1.16  -6.00
  2527.29000  -4.403   2.7091   7.6135   5.25  -1.45  -6.09
  2527.73000  -1.496   2.7167   7.6202   5.53  -1.21  -6.01
  2527.73000  -2.417   2.7167   7.6202   5.53  -1.21  -6.01
  2527.73000  -3.417   2.7167   7.6202   5.53  -1.21  -6.01
  2527.83600  -1.817   2.7116   7.6150   5.65  -1.41  -6.08
  2527.83600  -2.118   2.7116   7.6150   5.65  -1.41  -6.08
  2528.22600  -1.935   2.7091   7.6117   5.71  -1.51  -6.11
  2528.27200  -2.727   2.7167   7.6192   5.53  -1.25  -6.03
  2528.28700  -3.816   2.7167   7.6191   5.13  -1.25  -6.03
  2528.54600  -2.128   2.7116   7.6136   5.65  -1.45  -6.09
  2528.57200  -3.923   2.7116   7.6135   5.25  -1.45  -6.09
  2528.99200  -1.438   2.7167   7.6178   5.59  -1.30  -6.04
  2528.99200  -2.359   2.7167   7.6178   5.59  -1.30  -6.04
  2528.99200  -3.359   2.7167   7.6178   5.59  -1.30  -6.04
  2529.08000  -4.342   2.7091   7.6101   5.31  -1.56  -6.13
  2529.50900  -1.754   2.7116   7.6117   5.71  -1.51  -6.11
  2529.50900  -2.055   2.7116   7.6117   5.71  -1.51  -6.11
  2529.55100  -2.669   2.7167   7.6167   5.59  -1.35  -6.06
  2529.63100  -3.761   2.7167   7.6165   5.19  -1.35  -6.06
  2530.17300  -1.868   2.7091   7.6079   5.78  -1.63  -6.15
  2530.32500  -2.065   2.7116   7.6101   5.71  -1.56  -6.13
  2530.36500  -3.863   2.7116   7.6101   5.31  -1.56  -6.13
  2530.44100  -1.378   2.7167   7.6150   5.65  -1.41  -6.08
  2530.44100  -2.298   2.7167   7.6150   5.65  -1.41  -6.08
  2530.44100  -3.298   2.7167   7.6150   5.65  -1.41  -6.08
  2531.15300  -2.609   2.7167   7.6136   5.65  -1.45  -6.09
  2531.17500  -4.279   2.7091   7.6060   5.37  -1.68  -6.16
  2531.17900  -3.703   2.7167   7.6135   5.25  -1.45  -6.09
  2531.45800  -1.687   2.7116   7.6079   5.78  -1.63  -6.15
  2531.45800  -1.988   2.7116   7.6079   5.78  -1.63  -6.15
  2532.11800  -1.314   2.7167   7.6117   5.71  -1.51  -6.11
  2532.11800  -2.235   2.7167   7.6117   5.71  -1.51  -6.11
  2532.11800  -3.235   2.7167   7.6117   5.71  -1.51  -6.11
  2532.40800  -1.998   2.7116   7.6061   5.78  -1.68  -6.16
  2532.46100  -1.797   2.7091   7.6035   5.85  -1.74  -6.19
  2532.46100  -3.799   2.7116   7.6060   5.37  -1.68  -6.16
  2532.93500  -2.545   2.7167   7.6101   5.71  -1.56  -6.13
  2532.97500  -3.642   2.7167   7.6101   5.31  -1.56  -6.13
  2533.64600  -4.212   2.7091   7.6012   5.44  -1.80  -6.20
  2533.74800  -1.617   2.7116   7.6035   5.85  -1.74  -6.19
  2533.74800  -1.918   2.7116   7.6035   5.85  -1.74  -6.19
  2534.07100  -1.247   2.7167   7.6079   5.78  -1.63  -6.15
  2534.07100  -2.168   2.7167   7.6079   5.78  -1.63  -6.15
  2534.07100  -3.168   2.7167   7.6079   5.78  -1.63  -6.15
  2534.86800  -1.928   2.7116   7.6014   5.85  -1.80  -6.20
  2534.93500  -3.732   2.7116   7.6012   5.44  -1.80  -6.20
  2535.02300  -2.478   2.7167   7.6061   5.78  -1.68  -6.16
  2535.07600  -3.579   2.7167   7.6060   5.37  -1.68  -6.16
  2535.17400  -1.723   2.7091   7.5983   5.93  -1.87  -6.23
  2536.36600  -1.177   2.7167   7.6035   5.85  -1.74  -6.19
  2536.36600  -2.097   2.7167   7.6035   5.85  -1.74  -6.19
  2536.36600  -3.097   2.7167   7.6035   5.85  -1.74  -6.19
  2536.46400  -1.542   2.7116   7.5983   5.93  -1.87  -6.23
  2536.46400  -1.843   2.7116   7.5983   5.93  -1.87  -6.23
  2536.59000  -4.142   2.7091   7.5955   5.51  -1.93  -6.24
  2537.48800  -2.408   2.7167   7.6014   5.85  -1.80  -6.20
  2537.55500  -3.512   2.7167   7.6012   5.44  -1.80  -6.20
  2537.79600  -1.853   2.7116   7.5957   5.93  -1.93  -6.24
  2537.88200  -3.662   2.7116   7.5955   5.51  -1.93  -6.24
  2538.42400  -1.644   2.7091   7.5920   6.01  -2.00  -6.27
  2539.08700  -1.103   2.7167   7.5983   5.93  -1.87  -6.23
  2539.08700  -2.023   2.7167   7.5983   5.93  -1.87  -6.23
  2539.08700  -3.023   2.7167   7.5983   5.93  -1.87  -6.23
  2539.71800  -1.463   2.7116   7.5920   6.01  -2.00  -6.27
  2539.71800  -1.764   2.7116   7.5920   6.01  -2.00  -6.27
  2540.13600  -4.067   2.7091   7.5887   5.58  -2.07  -6.29
  2540.42200  -2.333   2.7167   7.5957   5.93  -1.93  -6.24
  2540.50800  -3.442   2.7167   7.5955   5.51  -1.93  -6.24
  2541.32500  -1.774   2.7116   7.5889   6.01  -2.06  -6.29
  2541.43100  -3.588   2.7116   7.5887   5.58  -2.07  -6.29
  2542.34800  -1.024   2.7167   7.5920   6.01  -2.00  -6.27
  2542.34800  -1.944   2.7167   7.5920   6.01  -2.00  -6.27
  2542.34800  -2.944   2.7167   7.5920   6.01  -2.00  -6.27
  2542.36600  -1.560   2.7091   7.5844   6.09  -2.14  -6.31
  2543.66400  -1.379   2.7116   7.5844   6.09  -2.14  -6.31
  2543.66400  -1.680   2.7116   7.5844   6.09  -2.14  -6.31
  2543.95800  -2.254   2.7167   7.5889   6.01  -2.06  -6.29
  2544.06500  -3.367   2.7167   7.5887   5.58  -2.07  -6.29
  2544.46100  -3.988   2.7091   7.5804   5.66  -2.21  -6.34
  2545.60300  -1.690   2.7116   7.5807   6.09  -2.21  -6.33
  2545.76100  -3.509   2.7116   7.5804   5.66  -2.21  -6.34
  2546.30200  -0.939   2.7167   7.5844   6.09  -2.14  -6.31
  2546.30200  -1.860   2.7167   7.5844   6.09  -2.14  -6.31
  2546.30200  -2.860   2.7167   7.5844   6.09  -2.14  -6.31
  2547.21000  -1.470   2.7091   7.5752   0.00   0.00   0.00
  2548.24500  -2.170   2.7167   7.5807   6.09  -2.21  -6.33
  2548.40400  -3.288   2.7167   7.5804   5.66  -2.21  -6.34
  2548.51200  -1.290   2.7116   7.5752   0.00   0.00   0.00
  2548.51200  -1.590   2.7116   7.5752   0.00   0.00   0.00
  2549.81400  -3.904   2.7091   7.5702   5.75  -2.37  -6.39
  2550.90300  -1.600   2.7116   7.5706   0.00   0.00   0.00
  2551.12000  -3.424   2.7116   7.5702   5.75  -2.37  -6.39
  2551.16000  -0.850   2.7167   7.5752   0.00   0.00   0.00
  2551.16000  -1.770   2.7167   7.5752   0.00   0.00   0.00
  2551.16000  -2.770   2.7167   7.5752   0.00   0.00   0.00
  2553.25600  -1.520   2.7091   7.5637   0.00   0.00   0.00
  2553.55700  -2.080   2.7167   7.5706   0.00   0.00   0.00
  2553.77300  -3.204   2.7167   7.5702   5.75  -2.37  -6.39
  2554.56500  -1.340   2.7116   7.5637   0.00   0.00   0.00
  2554.56500  -1.640   2.7116   7.5637   0.00   0.00   0.00
  2556.54900  -3.814   2.7091   7.5574   5.84  -2.54  -6.44
  2557.22600  -0.890   2.7167   7.5637   0.00   0.00   0.00
  2557.22600  -1.810   2.7167   7.5637   0.00   0.00   0.00
  2557.22600  -2.820   2.7167   7.5637   0.00   0.00   0.00
  2557.57300  -1.650   2.7116   7.5579   0.00   0.00   0.00
  2557.86200  -3.335   2.7116   7.5574   5.84  -2.54  -6.44
  2560.24000  -2.130   2.7167   7.5579   0.00   0.00   0.00
  2560.52900  -3.114   2.7167   7.5574   5.84  -2.54  -6.44
  2560.94200  -1.550   2.7091   7.5491   0.00   0.00   0.00
  2562.25900  -1.370   2.7116   7.5491   0.00   0.00   0.00
  2562.25900  -1.670   2.7116   7.5491   0.00   0.00   0.00
  2564.93600  -0.920   2.7167   7.5491   0.00   0.00   0.00
  2564.93600  -1.840   2.7167   7.5491   0.00   0.00   0.00
  2564.93600  -2.850   2.7167   7.5491   0.00   0.00   0.00
  2565.19100  -3.718   2.7091   7.5411   5.93  -2.72  -6.50
  2566.10100  -1.680   2.7116   7.5418   0.00   0.00   0.00
  2566.51200  -3.238   2.7116   7.5411   5.93  -2.72  -6.50
  2568.78600  -2.160   2.7167   7.5418   0.00   0.00   0.00
  2569.19800  -3.018   2.7167   7.5411   5.93  -2.72  -6.50
  2570.91700  -2.450   2.7091   7.5303   0.00   0.00   0.00
  2572.24400  -2.270   2.7116   7.5303   0.00   0.00   0.00
  2572.24400  -2.570   2.7116   7.5303   0.00   0.00   0.00
  2574.94200  -1.830   2.7167   7.5303   0.00   0.00   0.00
  2574.94200  -2.750   2.7167   7.5303   0.00   0.00   0.00
  2574.94200  -3.750   2.7167   7.5303   0.00   0.00   0.00
  2576.54400  -3.613   2.7091   7.5198   6.04  -2.92  -6.56
  2577.26400  -2.580   2.7116   7.5209   0.00   0.00   0.00
  2577.87700  -3.134   2.7116   7.5198   6.04  -2.92  -6.56
  2579.97200  -3.060   2.7167   7.5209   0.00   0.00   0.00
  2580.58700  -2.913   2.7167   7.5198   6.04  -2.92  -6.56
  2584.21200  -2.320   2.7091   7.5055   0.00   0.00   0.00
  2585.55300  -2.140   2.7116   7.5055   0.00   0.00   0.00
  2585.55300  -2.440   2.7116   7.5055   0.00   0.00   0.00
  2588.27900  -1.690   2.7167   7.5055   0.00   0.00   0.00
  2588.27900  -2.610   2.7167   7.5055   0.00   0.00   0.00
  2588.27900  -3.620   2.7167   7.5055   0.00   0.00   0.00
  2591.88200  -3.500   2.7091   7.4913   0.00   0.00   0.00
  2592.27400  -2.450   2.7116   7.4931   0.00   0.00   0.00
  2593.23100  -3.020   2.7116   7.4913   0.00   0.00   0.00
  2595.01400  -2.930   2.7167   7.4931   0.00   0.00   0.00
  2595.97300  -2.800   2.7167   7.4913   0.00   0.00   0.00
  2602.49600  -2.170   2.7091   7.4718   0.00   0.00   0.00
  2603.85500  -1.990   2.7116   7.4718   0.00   0.00   0.00
  2603.85500  -2.290   2.7116   7.4718   0.00   0.00   0.00
  2606.62000  -1.550   2.7167   7.4718   0.00   0.00   0.00
  2606.62000  -2.470   2.7167   7.4718   0.00   0.00   0.00
  2606.62000  -3.470   2.7167   7.4718   0.00   0.00   0.00
  2613.13600  -2.300   2.7116   7.4549   0.00   0.00   0.00
  2613.35300  -3.350   2.7091   7.4520   0.00   0.00   0.00
  2614.72400  -2.870   2.7116   7.4520   0.00   0.00   0.00
  2615.92000  -2.780   2.7167   7.4549   0.00   0.00   0.00
  2617.51200  -2.650   2.7167   7.4520   0.00   0.00   0.00
  2628.66400  -2.000   2.7091   7.4244   0.00   0.00   0.00
  2630.05200  -2.130   2.7116   7.4244   0.00   0.00   0.00
  2630.05300  -1.820   2.7116   7.4244   0.00   0.00   0.00
  2632.87200  -3.300   2.7167   7.4244   0.00   0.00   0.00
  2632.87300  -2.300   2.7167   7.4244   0.00   0.00   0.00
  2632.87400  -1.380   2.7167   7.4244   0.00   0.00   0.00
  2643.34900  -2.130   2.7116   7.4007   0.00   0.00   0.00
  2644.80300  -3.170   2.7091   7.3956   0.00   0.00   0.00
  2646.19800  -2.610   2.7167   7.4007   0.00   0.00   0.00
  2646.20700  -2.690   2.7116   7.3956   0.00   0.00   0.00
  2649.06200  -2.470   2.7167   7.3956   0.00   0.00   0.00
  2668.12300  -1.810   2.7091   7.3547   0.00   0.00   0.00
  2669.55200  -1.930   2.7116   7.3547   0.00   0.00   0.00
  2669.55400  -1.630   2.7116   7.3547   0.00   0.00   0.00
  2672.45800  -3.110   2.7167   7.3547   0.00   0.00   0.00
  2672.45900  -2.100   2.7167   7.3547   0.00   0.00   0.00
  2672.46000  -1.180   2.7167   7.3547   0.00   0.00   0.00
  2689.50300  -6.250   2.7116   7.3202   0.00   0.00   0.00
  2692.45200  -5.300   2.7167   7.3202   0.00   0.00   0.00
  2693.72200  -2.960   2.7091   7.3105   0.00   0.00   0.00
  2695.17900  -2.480   2.7116   7.3105   0.00   0.00   0.00
  2698.14100  -2.260   2.7167   7.3105   0.00   0.00   0.00
  2731.99370  -1.631   2.7091   7.2461   0.00   0.00   0.00
  2733.49200  -1.756   2.7116   7.2461   0.00   0.00   0.00
  2733.49470  -1.280   2.7116   7.2461   0.00   0.00   0.00
  2736.53900  -2.934   2.7167   7.2461   0.00   0.00   0.00
  2736.54100  -1.757   2.7167   7.2461   0.00   0.00   0.00
  2736.54200  -1.009   2.7167   7.2461   0.00   0.00   0.00
  2765.22200  -3.510   2.7116   7.1940   0.00   0.00   0.00
  2768.34000  -3.000   2.7167   7.1940   0.00   0.00   0.00
  2776.58700  -2.710   2.7091   7.1732   0.00   0.00   0.00
  2776.69000  -0.118   2.7116   7.1755   9.02   0.00   0.00
  2778.13500  -2.230   2.7116   7.1732   0.00   0.00   0.00
  2778.27000  -0.199   2.7091   7.1705   9.02   0.00   0.00
  2779.83100   0.375   2.7167   7.1755   9.02   0.00   0.00
  2779.83100  -0.324   2.7116   7.1705   9.02   0.00   0.00
  2781.28200  -2.010   2.7167   7.1732   0.00   0.00   0.00
  2781.41600  -0.201   2.7116   7.1679   9.03   0.00   0.00
  2782.97200  -0.128   2.7167   7.1705   9.02   0.00   0.00
  2809.75500  -0.585   5.9460  10.3574   8.86   0.00   0.00
  2809.76100   0.316   5.9460  10.3574   8.85   0.00   0.00
  2811.04800   0.129   5.9460  10.3553   8.86   0.00   0.00
  2811.05000  -0.586   5.9460  10.3553   8.85   0.00   0.00
  2811.05100  -0.602   5.9460  10.3553   8.85   0.00   0.00
  2811.11200   0.064   5.9460  10.3553   0.00   0.00   0.00
  2811.77700  -0.602   5.9460  10.3542   8.86   0.00   0.00
  2811.78000  -0.125   5.9460  10.3542   8.85   0.00   0.00
  2846.71670  -1.320   2.7091   7.0632   0.00   0.00   0.00
  2848.34400  -1.444   2.7116   7.0632   0.00   0.00   0.00
  2848.34560  -0.968   2.7116   7.0632   0.00   0.00   0.00
  2851.65200  -2.622   2.7167   7.0632   0.00   0.00   0.00
  2851.65400  -1.446   2.7167   7.0632   0.00   0.00   0.00
  2851.65620  -0.697   2.7167   7.0632   0.00   0.00   0.00
  2852.12610   0.255   0.0000   4.3458   8.71  -5.64  -7.59
  2902.92600  -4.720   2.7116   6.9814   0.00   0.00   0.00
  2906.36200  -4.720   2.7167   6.9814   0.00   0.00   0.00
  2915.45300   0.416   5.7533  10.0048   8.56   0.00   0.00
  2936.73900  -2.273   2.7091   6.9298   0.00   0.00   0.00
  2938.47300  -1.796   2.7116   6.9298   0.00   0.00   0.00
  2941.99400  -1.575   2.7167   6.9298   0.00   0.00   0.00
  3091.06400  -0.876   2.7091   6.7191   0.00   0.00  -6.88
  3092.98200  -1.049   2.7116   6.7191   0.00   0.00  -6.88
  3092.98630  -0.572   2.7116   6.7191   0.00   0.00  -6.88
  3096.88400  -2.225   2.7167   6.7191   0.00   0.00  -6.88
  3096.88700  -1.048   2.7167   6.7191   0.00   0.00  -6.88
  3096.89110  -0.301   2.7167   6.7191   0.00   0.00  -6.88
  3197.62500  -4.920   2.7116   6.5879   0.00   0.00   0.00
  3201.79400  -5.000   2.7167   6.5879   0.00   0.00   0.00
  3290.06000  -2.500   6.5879  10.3553   0.00   0.00   0.00
  3291.05900  -1.500   6.5879  10.3542   0.00   0.00   0.00
  3329.91940  -1.812   2.7091   6.4314   0.00   0.00   0.00
  3332.14580  -1.292   2.7116   6.4314   0.00   0.00   0.00
  3336.67400  -1.071   2.7167   6.4314   0.00   0.00   0.00
  3627.62800  -1.256   6.5879  10.0048   8.57   0.00   0.00
  3635.81300 -12.231   2.7091   6.1183   0.00   0.00   0.00
  3638.46800 -11.899   2.7116   6.1183   0.00   0.00   0.00
  3638.46800 -12.357   2.7116   6.1183   0.00   0.00   0.00
  3643.86700 -12.138   2.7167   6.1183   0.00   0.00   0.00
  3643.86700 -11.777   2.7167   6.1183   0.00   0.00   0.00
  3789.56900  -2.000   4.3458   7.6167   0.00   0.00   0.00
  3793.16300  -2.000   4.3458   7.6136   0.00   0.00   0.00
  3797.16900  -2.000   4.3458   7.6101   0.00   0.00   0.00
  3801.86200  -2.000   4.3458   7.6061   0.00   0.00   0.00
  3807.40800  -2.000   4.3458   7.6014   0.00   0.00   0.00
  3814.01700  -2.000   4.3458   7.5957   0.00   0.00   0.00
  3821.99300  -2.000   4.3458   7.5889   0.00   0.00   0.00
  3829.35490  -0.227   2.7091   5.9460   0.00  -4.56  -7.29
  3829.35900 -12.635   2.7091   5.9460   0.00   0.00   0.00
  3831.67600  -1.500   4.3458   7.5807   0.00   0.00   0.00
  3832.29960  -0.353   2.7116   5.9460   0.00  -4.56  -7.29
  3832.30100 -12.470   2.7116   5.9460   0.00   0.00   0.00
  3832.30370   0.125   2.7116   5.9460   0.00  -4.56  -7.29
  3838.27100  -2.780   4.3458   7.5752   0.00   0.00   0.00
  3838.29000  -1.527   2.7167   5.9460   0.00  -4.56  -7.29
  3838.29180   0.397   2.7167   5.9460   0.00  -4.56  -7.29
  3838.29430  -0.351   2.7167   5.9460   0.00  -4.56  -7.29
  3843.69800  -1.480   4.3458   7.5706   0.00   0.00   0.00
  3844.95100  -6.791   2.7091   5.9328   0.00   0.00   0.00
  3845.94900 -12.693   2.7091   5.9320   0.00   0.00   0.00
  3847.92000  -6.439   2.7116   5.9328   0.00   0.00   0.00
  3847.92000 -11.977   2.7116   5.9328   0.00   0.00   0.00
  3848.91400  -6.914   2.7116   5.9320   0.00   0.00   0.00
  3848.92000 -17.542   2.7116   5.9320   0.00   0.00   0.00
  3849.40800 -12.690   2.7116   5.9316   0.00   0.00   0.00
  3852.01700  -2.830   4.3458   7.5637   0.00   0.00   0.00
  3853.96000  -6.547   2.7167   5.9328   0.00   0.00   0.00
  3853.96000 -19.492   2.7167   5.9328   0.00   0.00   0.00
  3854.96200 -11.974   2.7167   5.9320   0.00   0.00   0.00
  3854.96500  -6.436   2.7167   5.9320   0.00   0.00   0.00
  3855.45200  -6.787   2.7167   5.9316   0.00   0.00   0.00
  3858.86000  -1.520   4.3458   7.5579   0.00   0.00   0.00
  3869.53600  -3.760   4.3458   7.5491   0.00   0.00   0.00
  3878.30600  -0.457   4.3458   7.5418   8.74   0.00   0.00
  3890.17800  -0.091   7.1679  10.3542   9.21   0.00   0.00
  3890.24100  -0.049   7.1679  10.3542   0.00   0.00   0.00
  3891.90600   0.303   7.1705  10.3553   9.20   0.00   0.00
  3892.35400  -3.650   4.3458   7.5303   0.00   0.00   0.00
  3893.30400  -0.175   7.1705  10.3542   9.20   0.00   0.00
  3895.57200   0.574   7.1755  10.3574   9.20   0.00   0.00
  3898.05900  -0.221   7.1755  10.3553   9.20   0.00   0.00
  3898.12000  -0.174   7.1755  10.3553   0.00   0.00   0.00
  3899.46000  -1.351   7.1755  10.3542   9.20   0.00   0.00
  3903.85900  -0.511   4.3458   7.5209   8.73   0.00   0.00
  3922.90800  -3.530   4.3458   7.5055   0.00   0.00   0.00
  3936.28800  -3.230   4.3458   7.4948   0.00   0.00   0.00
  3938.40000  -1.197   4.3458   7.4931   8.72   0.00   0.00
  3965.19300  -3.410   4.3458   7.4718   0.00   0.00   0.00
  3984.21300  -3.080   4.3458   7.4569   0.00   0.00   0.00
  3986.75330  -1.060   4.3458   7.4549   8.71   0.00   0.00
  4026.26200  -3.270   4.3458   7.4244   0.00   0.00   0.00
  4054.68800  -2.890   4.3458   7.4028   0.00   0.00   0.00
  4057.50520  -0.900   4.3458   7.4007   8.71   0.00   0.00
  4071.72900 -11.233   2.7091   5.7533   0.00   0.00   0.00
  4075.05800 -10.884   2.7116   5.7533   0.00   0.00   0.00
  4081.83200 -10.995   2.7167   5.7533   0.00   0.00   0.00
  4099.78700  -1.666   6.9814  10.0048   0.00   0.00   0.00
  4119.57300  -3.130   4.3458   7.3547   0.00   0.00   0.00
  4165.10100  -2.680   4.3458   7.3218   0.00   0.00   0.00
  4167.27120  -0.745   4.3458   7.3202   8.71   0.00   0.00
  4273.83800  -3.020   4.3458   7.2461   0.00   0.00   0.00
  4351.90560  -0.583   4.3458   7.1940   8.72   0.00   0.00
  4354.52800  -2.420   4.3458   7.1923   0.00   0.00   0.00
  4380.37600  -3.000   4.3458   7.1755   0.00   0.00   0.00
  4388.17100  -5.000   4.3458   7.1705   0.00   0.00   0.00
  4392.14900  -5.000   4.3458   7.1679   0.00   0.00   0.00
  4409.92300  -1.951   7.1940  10.0048   0.00   0.00   0.00
  4561.39300  -3.020   4.3458   7.0632   0.00   0.00   0.00
  4562.60200 -10.207   0.0000   2.7167   3.66   0.00   0.00
  4571.09560  -5.623   0.0000   2.7116   2.34   0.00  -7.77
  4575.29200 -11.740   0.0000   2.7091   3.24   0.00   0.00
  4621.30100  -5.000   2.7116   5.3938   0.00   0.00   0.00
  4630.01500 -11.183   2.7167   5.3938   0.00   0.00   0.00
  4702.99090  -0.440   4.3458   6.9814   8.72  -3.98  -6.69
  4730.02860  -2.347   4.3458   6.9664   8.71   0.00   0.00
  5167.32160  -0.931   2.7091   5.1079   7.99  -5.47  -7.27
  5172.68430  -0.450   2.7116   5.1079   7.99  -5.47  -7.27
  5183.60420  -0.239   2.7167   5.1079   7.99  -5.47  -7.27
  5222.92500  -3.510   4.3458   6.7191   0.00   0.00   0.00
  5345.97600  -2.620   5.1079   7.4265   0.00   0.00   0.00
  5345.97600  -2.840   5.1079   7.4265   0.00   0.00   0.00
  5345.97600  -3.310   5.1079   7.4265   0.00   0.00   0.00
  5509.59700  -2.390   5.1079   7.3576   0.00   0.00   0.00
  5509.59700  -2.610   5.1079   7.3576   0.00   0.00   0.00
  5509.59700  -3.090   5.1079   7.3576   0.00   0.00   0.00
  5528.40470  -0.498   4.3458   6.5879   8.72  -4.46  -6.98
  5711.08800  -1.724   4.3458   6.5162   8.71   0.00   0.00
  5785.31300  -2.110   5.1079   7.2504   8.05   0.00   0.00
  5785.56100  -2.500   5.1079   7.2503   8.05   0.00   0.00
  5785.67200  -2.810   5.1079   7.2503   0.00   0.00   0.00
  6083.52200  -3.270   5.3938   7.4313   0.00   0.00   0.00
  6287.63000  -2.980   5.3938   7.3651   0.00   0.00   0.00
  6318.71700  -2.103   5.1079   7.0695   0.00   0.00   0.00
  6319.23700  -2.324   5.1079   7.0694   0.00   0.00   0.00
  6319.49300  -2.803   5.1079   7.0693   0.00   0.00   0.00
  6630.83300  -2.620   5.3938   7.2631   0.00   0.00   0.00
  6765.45000  -1.490   5.7533   7.5854   0.00   0.00   0.00
  6765.45000  -2.920   5.7533   7.5854   0.00   0.00   0.00
  6765.45000  -3.530   5.7533   7.5854   0.00   0.00   0.00
  6799.00100  -1.560   5.7533   7.5764   0.00   0.00   0.00
  6799.00100  -2.990   5.7533   7.5764   0.00   0.00   0.00
  6799.00100  -3.620   5.7533   7.5764   0.00   0.00   0.00
  6841.08400  -1.610   5.7533   7.5652   0.00   0.00   0.00
  6841.08400  -3.030   5.7533   7.5652   0.00   0.00   0.00
  6841.08400  -3.680   5.7533   7.5652   0.00   0.00   0.00
  6894.91800  -1.640   5.7533   7.5510   0.00   0.00   0.00
  6894.91800  -3.060   5.7533   7.5510   0.00   0.00   0.00
  6894.91800  -3.720   5.7533   7.5510   0.00   0.00   0.00
  6965.40900  -1.510   5.7533   7.5328   0.00   0.00   0.00
  6965.40900  -2.920   5.7533   7.5328   0.00   0.00   0.00
  6965.40900  -3.620   5.7533   7.5328   0.00   0.00   0.00
  7060.40900  -1.351   5.7533   7.5089   0.00   0.00   0.00
  7060.41400  -2.780   5.7533   7.5089   0.00   0.00   0.00
  7193.17200  -1.194   5.7533   7.4765   0.00   0.00   0.00
  7193.18400  -2.610   5.7533   7.4765   0.00   0.00   0.00
  7291.06000  -2.824   5.3938   7.0938   0.00   0.00   0.00
  7387.00100  -3.910   5.7533   7.4313   0.00   0.00   0.00
  7387.68500  -1.000   5.7533   7.4311   0.00   0.00   0.00
  7387.68900  -2.420   5.7533   7.4311   0.00   0.00   0.00
  7408.22400  -3.870   5.7533   7.4265   0.00   0.00   0.00
  7408.22400  -4.350   5.7533   7.4265   0.00   0.00   0.00
  7541.59100  -2.310   5.9316   7.5752   0.00   0.00   0.00
  7543.46600  -2.130   5.9320   7.5752   0.00   0.00   0.00
  7543.46600  -2.430   5.9320   7.5752   0.00   0.00   0.00
  7547.30900  -1.680   5.9328   7.5752   0.00   0.00   0.00
  7547.30900  -2.600   5.9328   7.5752   0.00   0.00   0.00
  7547.30900  -3.610   5.9328   7.5752   0.00   0.00   0.00
  7560.53100  -1.560   5.9460   7.5854   0.00   0.00   0.00
  7560.53100  -2.650   5.9460   7.5854   0.00   0.00   0.00
  7560.53100  -4.510   5.9460   7.5854   0.00   0.00   0.00
  7560.54200  -1.420   5.9460   7.5854   0.00   0.00   0.00
  7560.54200  -2.690   5.9460   7.5854   0.00   0.00   0.00
  7560.54200  -2.890   5.9460   7.5854   0.00   0.00   0.00
  7560.54200  -4.020   5.9460   7.5854   0.00   0.00   0.00
  7560.54900  -1.750   5.9460   7.5854   0.00   0.00   0.00
  7564.45400  -2.440   5.9320   7.5706   0.00   0.00   0.00
  7568.31800  -2.920   5.9328   7.5706   0.00   0.00   0.00
  7573.18000 -11.603   2.7091   4.3458   0.00   0.00   0.00
  7584.70500 -12.012   2.7116   4.3458   0.00   0.00   0.00
  7584.70500 -11.729   2.7116   4.3458   0.00   0.00   0.00
  7594.84000  -2.350   5.9316   7.5637   0.00   0.00   0.00
  7596.74100  -2.170   5.9320   7.5637   0.00   0.00   0.00
  7596.74100  -2.480   5.9320   7.5637   0.00   0.00   0.00
  7600.63900  -1.730   5.9328   7.5637   0.00   0.00   0.00
  7600.63900  -2.650   5.9328   7.5637   0.00   0.00   0.00
  7600.63900  -3.650   5.9328   7.5637   0.00   0.00   0.00
  7602.45600  -1.630   5.9460   7.5764   0.00   0.00   0.00
  7602.45600  -2.720   5.9460   7.5764   0.00   0.00   0.00
  7602.45600  -4.550   5.9460   7.5764   0.00   0.00   0.00
  7602.46700  -1.490   5.9460   7.5764   0.00   0.00   0.00
  7602.46700  -2.760   5.9460   7.5764   0.00   0.00   0.00
  7602.46700  -2.960   5.9460   7.5764   0.00   0.00   0.00
  7602.46700  -4.090   5.9460   7.5764   0.00   0.00   0.00
  7602.47400  -1.820   5.9460   7.5764   0.00   0.00   0.00
  7608.20600 -11.509   2.7167   4.3458   0.00   0.00   0.00
  7608.20600 -12.161   2.7167   4.3458   0.00   0.00   0.00
  7623.40000  -2.480   5.9320   7.5579   0.00   0.00   0.00
  7627.32500  -2.960   5.9328   7.5579   0.00   0.00   0.00
  7655.11100  -1.680   5.9460   7.5652   0.00   0.00   0.00
  7655.11100  -2.770   5.9460   7.5652   0.00   0.00   0.00
  7655.11100  -4.550   5.9460   7.5652   0.00   0.00   0.00
  7655.12200  -1.530   5.9460   7.5652   0.00   0.00   0.00
  7655.12200  -2.810   5.9460   7.5652   0.00   0.00   0.00
  7655.12200  -3.010   5.9460   7.5652   0.00   0.00   0.00
  7655.12200  -4.140   5.9460   7.5652   0.00   0.00   0.00
  7655.12900  -1.860   5.9460   7.5652   0.00   0.00   0.00
  7657.60300  -1.268   5.1079   6.7266   0.00   0.00   0.00
  7659.15200  -1.489   5.1079   6.7262   0.00   0.00   0.00
  7659.90100  -1.965   5.1079   6.7261   0.00   0.00   0.00
  7663.24500  -2.370   5.9316   7.5491   0.00   0.00   0.00
  7665.18100  -2.190   5.9320   7.5491   0.00   0.00   0.00
  7665.18100  -2.500   5.9320   7.5491   0.00   0.00   0.00
  7669.14900  -1.750   5.9328   7.5491   0.00   0.00   0.00
  7669.14900  -2.670   5.9328   7.5491   0.00   0.00   0.00
  7669.14900  -3.680   5.9328   7.5491   0.00   0.00   0.00
  7690.12300  -3.670   5.7533   7.3651   0.00   0.00   0.00
  7691.55000  -0.783   5.7533   7.3648   0.00   0.00   0.00
  7691.55300  -2.190   5.7533   7.3648   0.00   0.00   0.00
  7699.67000  -2.510   5.9320   7.5418   0.00   0.00   0.00
  7703.67400  -2.990   5.9328   7.5418   0.00   0.00   0.00
  7722.58300  -1.710   5.9460   7.5510   0.00   0.00   0.00
  7722.58300  -2.800   5.9460   7.5510   0.00   0.00   0.00
  7722.58300  -4.550   5.9460   7.5510   0.00   0.00   0.00
  7722.59300  -1.560   5.9460   7.5510   0.00   0.00   0.00
  7722.59300  -2.840   5.9460   7.5510   0.00   0.00   0.00
  7722.59300  -3.030   5.9460   7.5510   0.00   0.00   0.00
  7722.59300  -4.170   5.9460   7.5510   0.00   0.00   0.00
  7722.60100  -1.890   5.9460   7.5510   0.00   0.00   0.00
  7726.18000  -3.620   5.7533   7.3576   0.00   0.00   0.00
  7726.18000  -4.100   5.7533   7.3576   0.00   0.00   0.00
  7746.32600 -13.784   4.3458   5.9460   0.00   0.00   0.00
  7746.33400 -11.858   4.3458   5.9460   0.00   0.00   0.00
  7746.34500 -12.608   4.3458   5.9460   0.00   0.00   0.00
  7753.25500  -2.270   5.9316   7.5303   0.00   0.00   0.00
  7755.23600  -2.090   5.9320   7.5303   0.00   0.00   0.00
  7755.23600  -2.390   5.9320   7.5303   0.00   0.00   0.00
  7759.29800  -1.650   5.9328   7.5303   0.00   0.00   0.00
  7759.29800  -2.570   5.9328   7.5303   0.00   0.00   0.00
  7759.29800  -3.570   5.9328   7.5303   0.00   0.00   0.00
  7801.04100  -2.400   5.9320   7.5209   0.00   0.00   0.00
  7805.15100  -2.880   5.9328   7.5209   0.00   0.00   0.00
  7810.41300 -12.331   4.3458   5.9328   0.00   0.00   0.00
  7810.41300 -11.765   4.3458   5.9328   0.00   0.00   0.00
  7811.12200  -1.570   5.9460   7.5328   0.00   0.00   0.00
  7811.12200  -2.660   5.9460   7.5328   0.00   0.00   0.00
  7811.12200  -4.340   5.9460   7.5328   0.00   0.00   0.00
  7811.13300  -1.420   5.9460   7.5328   0.00   0.00   0.00
  7811.13300  -2.700   5.9460   7.5328   0.00   0.00   0.00
  7811.13300  -2.900   5.9460   7.5328   0.00   0.00   0.00
  7811.13300  -4.030   5.9460   7.5328   0.00   0.00   0.00
  7811.14100  -1.760   5.9460   7.5328   0.00   0.00   0.00
  7814.53300 -12.548   4.3458   5.9320   0.00   0.00   0.00
  7814.53300 -10.938   4.3458   5.9320   0.00   0.00   0.00
  7816.54600 -12.424   4.3458   5.9316   0.00   0.00   0.00
  7875.43000  -2.149   5.9316   7.5055   0.00   0.00   0.00
  7877.48000  -1.797   5.9320   7.5055   0.00   0.00   0.00
  7877.48000  -2.275   5.9320   7.5055   0.00   0.00   0.00
  7881.66700  -1.527   5.9328   7.5055   0.00   0.00   0.00
  7881.67000  -2.276   5.9328   7.5055   0.00   0.00   0.00
  7881.67000  -3.451   5.9328   7.5055   0.00   0.00   0.00
  7930.79400  -1.430   5.9460   7.5089   0.00   0.00   0.00
  7930.79400  -4.130   5.9460   7.5089   0.00   0.00   0.00
  7930.79400  -2.402   5.9460   7.5089   0.00   0.00   0.00
  7930.80600  -1.340   5.9460   7.5089   0.00   0.00   0.00
  7930.80600  -1.671   5.9460   7.5089   0.00   0.00   0.00
  7930.80600  -2.402   5.9460   7.5089   0.00   0.00   0.00
  7930.80600  -3.951   5.9460   7.5089   0.00   0.00   0.00
  7940.19500  -2.260   5.9320   7.4931   0.00   0.00   0.00
  7944.45300  -2.740   5.9328   7.4931   0.00   0.00   0.00
  7947.10000  -3.083   5.9316   7.4913   0.00   0.00   0.00
  7949.18000  -2.606   5.9320   7.4913   0.00   0.00   0.00
  7953.39000  -2.384   5.9328   7.4913   0.00   0.00   0.00
  8047.72000  -1.987   5.9316   7.4718   0.00   0.00   0.00
  8049.85400  -1.634   5.9320   7.4718   0.00   0.00   0.00
  8049.85500  -2.111   5.9320   7.4718   0.00   0.00   0.00
  8054.23100  -2.111   5.9328   7.4718   0.00   0.00   0.00
  8054.23100  -3.288   5.9328   7.4718   0.00   0.00   0.00
  8054.23200  -1.363   5.9328   7.4718   0.00   0.00   0.00
  8098.70700  -1.270   5.9460   7.4765   0.00   0.00   0.00
  8098.70700  -3.890   5.9460   7.4765   0.00   0.00   0.00
  8098.70700  -2.229   5.9460   7.4765   0.00   0.00   0.00
  8098.71900  -2.230   5.9460   7.4765   0.00   0.00   0.00
  8098.71900  -3.780   5.9460   7.4765   0.00   0.00   0.00
  8098.72400  -1.168   5.9460   7.4765   0.00   0.00   0.00
  8098.72400  -1.498   5.9460   7.4765   0.00   0.00   0.00
  8139.21200  -2.100   5.9320   7.4549   0.00   0.00   0.00
  8143.68600  -2.580   5.9328   7.4549   0.00   0.00   0.00
  8152.44900  -2.920   5.9316   7.4520   0.00   0.00   0.00
  8154.64000  -2.450   5.9320   7.4520   0.00   0.00   0.00
  8159.13100  -2.220   5.9328   7.4520   0.00   0.00   0.00
  8209.83900  -2.260   5.7533   7.2631   7.21   0.00   0.00
  8213.01300  -1.890   5.7533   7.2625   0.00   0.00   0.00
  8213.03400  -0.509   5.7533   7.2625   0.00   0.00   0.00
  8279.50700  -3.770   5.7533   7.2504   0.00   0.00   0.00
  8280.01400  -3.280   5.7533   7.2503   0.00   0.00   0.00
  8303.31300  -1.796   5.9316   7.4244   0.00   0.00   0.00
  8305.58600  -1.921   5.9320   7.4244   0.00   0.00   0.00
  8305.59600  -1.319   5.9320   7.4244   0.00   0.00   0.00
  8310.24400  -3.097   5.9328   7.4244   0.00   0.00   0.00
  8310.25500  -1.921   5.9328   7.4244   0.00   0.00   0.00
  8310.26400  -1.174   5.9328   7.4244   0.00   0.00   0.00
  8345.22800  -4.270   5.9460   7.4313   0.00   0.00   0.00
  8346.10600  -1.080   5.9460   7.4311   0.00   0.00   0.00
  8346.10600  -3.580   5.9460   7.4311   0.00   0.00   0.00
  8346.10600  -2.029   5.9460   7.4311   0.00   0.00   0.00
  8346.11900  -2.031   5.9460   7.4311   0.00   0.00   0.00
  8346.11900  -3.580   5.9460   7.4311   0.00   0.00   0.00
  8346.12000  -0.967   5.9460   7.4311   0.00   0.00   0.00
  8346.12000  -1.300   5.9460   7.4311   0.00   0.00   0.00
  8372.32400  -3.610   5.9460   7.4265   0.00   0.00   0.00
  8372.32400  -4.090   5.9460   7.4265   0.00   0.00   0.00
  8372.33700  -3.170   5.9460   7.4265   0.00   0.00   0.00
  8372.34600  -3.790   5.9460   7.4265   0.00   0.00   0.00
  8372.34600  -3.920   5.9460   7.4265   0.00   0.00   0.00
  8439.65000  -1.910   5.9320   7.4007   0.00   0.00   0.00
  8444.46100  -2.390   5.9328   7.4007   0.00   0.00   0.00
  8466.48600  -2.720   5.9316   7.3956   0.00   0.00   0.00
  8468.84900  -2.240   5.9320   7.3956   0.00   0.00   0.00
  8473.69300  -2.020   5.9328   7.3956   0.00   0.00   0.00
  8507.90900  -3.050   6.1183   7.5752   0.00   0.00   0.00
  8534.61600  -2.750   6.1183   7.5706   0.00   0.00   0.00
  8575.73800  -3.110   6.1183   7.5637   0.00   0.00   0.00
  8609.72700  -2.810   6.1183   7.5579   0.00   0.00   0.00
  8663.05600  -3.040   6.1183   7.5491   0.00   0.00   0.00
  8707.13500  -2.760   6.1183   7.5418   0.00   0.00   0.00
  8710.17500  -1.565   5.9316   7.3547   0.00   0.00   0.00
  8712.67600  -1.690   5.9320   7.3547   0.00   0.00   0.00
  8712.68900  -1.213   5.9320   7.3547   0.00   0.00   0.00
  8717.80300  -2.866   5.9328   7.3547   0.00   0.00   0.00
  8717.81600  -1.690   5.9328   7.3547   0.00   0.00   0.00
  8717.82500  -0.941   5.9328   7.3547   0.00   0.00   0.00
  8734.16100  -4.040   5.9460   7.3651   0.00   0.00   0.00
  8736.00600  -0.860   5.9460   7.3648   0.00   0.00   0.00
  8736.00600  -3.210   5.9460   7.3648   0.00   0.00   0.00
  8736.00600  -1.786   5.9460   7.3648   0.00   0.00   0.00
  8736.02000  -1.788   5.9460   7.3648   0.00   0.00   0.00
  8736.02000  -3.337   5.9460   7.3648   0.00   0.00   0.00
  8736.02100  -0.725   5.9460   7.3648   0.00   0.00   0.00
  8736.02100  -1.056   5.9460   7.3648   0.00   0.00   0.00
  8778.26100  -2.960   6.1183   7.5303   0.00   0.00   0.00
  8780.70300  -3.360   5.9460   7.3576   0.00   0.00   0.00
  8780.70300  -3.840   5.9460   7.3576   0.00   0.00   0.00
  8780.71700  -2.920   5.9460   7.3576   0.00   0.00   0.00
  8780.72700  -3.540   5.9460   7.3576   0.00   0.00   0.00
  8780.72700  -3.670   5.9460   7.3576   0.00   0.00   0.00
  8780.72700  -4.840   5.9460   7.3576   0.00   0.00   0.00
  8806.75700  -0.134   4.3458   5.7533   8.69   0.00  -7.41
  8836.99200  -2.660   6.1183   7.5209   0.00   0.00   0.00
  8923.56900  -1.678   5.3938   6.7828   7.79   0.00   0.00
  8928.82700  -1.690   5.9320   7.3202   0.00   0.00   0.00
  8934.21200  -2.170   5.9328   7.3202   0.00   0.00   0.00
  8935.20700  -2.880   6.1183   7.5055   0.00   0.00   0.00
  8989.02800  -2.470   5.9316   7.3105   0.00   0.00   0.00
  8991.69200  -2.000   5.9320   7.3105   0.00   0.00   0.00
  8997.15300  -1.770   5.9328   7.3105   0.00   0.00   0.00
  9004.92100  -2.700   6.1183   7.4948   0.00   0.00   0.00
  9015.98300  -2.580   6.1183   7.4931   0.00   0.00   0.00
  9157.63500  -2.800   6.1183   7.4718   0.00   0.00   0.00
  9246.49900  -1.939   5.7533   7.0938   7.30   0.00   0.00
  9255.72200  -1.470   5.7533   7.0925   0.00   0.00   0.00
  9255.77800  -0.146   5.7533   7.0925   0.00   0.00  -6.68
  9259.71900  -2.530   6.1183   7.4569   0.00   0.00   0.00
  9273.45400  -2.510   6.1183   7.4549   0.00   0.00   0.00
  9302.58400  -8.410   5.3938   6.7262   7.46   0.00   0.00
  9410.77500  -3.740   5.9460   7.2631   0.00   0.00   0.00
  9414.94300  -1.474   5.9460   7.2625   0.00   0.00   0.00
  9414.95900  -1.474   5.9460   7.2625   0.00   0.00   0.00
  9414.95900  -3.025   5.9460   7.2625   0.00   0.00   0.00
  9414.96400  -0.411   5.9460   7.2625   0.00   0.00   0.00
  9414.96400  -0.572   5.9460   7.2625   8.27   0.00   0.00
  9414.96400  -0.743   5.9460   7.2625   0.00   0.00   0.00
  9417.19600  -3.300   5.7533   7.0695   0.00   0.00   0.00
  9418.35000  -2.820   5.7533   7.0694   0.00   0.00   0.00
  9429.81400  -1.271   5.9316   7.2461   0.00   0.00   0.00
  9432.74200  -1.396   5.9320   7.2461   0.00   0.00   0.00
  9432.76400  -0.919   5.9320   7.2461   0.00   0.00   0.00
  9438.75100  -2.572   5.9328   7.2461   0.00   0.00   0.00
  9438.78100  -1.396   5.9328   7.2461   0.00   0.00   0.00
  9438.78300  -0.648   5.9328   7.2461   0.00   0.00   0.00
  9490.05900  -2.760   6.1183   7.4244   0.00   0.00   0.00
  9502.43400  -3.510   5.9460   7.2504   0.00   0.00   0.00
  9502.45100  -2.590   5.9460   7.2504   0.00   0.00   0.00
  9502.46200  -4.520   5.9460   7.2504   0.00   0.00   0.00
  9503.10300  -3.040   5.9460   7.2503   0.00   0.00   0.00
  9503.13100  -3.340   5.9460   7.2503   0.00   0.00   0.00
  9503.43000  -3.220   5.9460   7.2503   0.00   0.00   0.00
  9649.50800  -2.320   6.1183   7.4028   0.00   0.00   0.00
  9665.47900  -1.767   6.1183   7.4007   0.00   0.00   0.00
  9821.61700  -1.410   5.9320   7.1940   0.00   0.00   0.00
  9828.13200  -1.890   5.9328   7.1940   0.00   0.00   0.00
  9983.18800  -2.153   5.9316   7.1732   0.00   0.00   0.00
  9986.47500  -1.676   5.9320   7.1732   0.00   0.00   0.00
  9993.20900  -1.455   5.9328   7.1732   0.00   0.00   0.00
 10025.28400  -2.850   6.1183   7.3547   0.00   0.00   0.00
 10299.29000  -2.076   6.1183   7.3218   0.00   0.00   0.00
 10312.53100  -1.730   6.1183   7.3202   8.07   0.00   0.00
 10798.55200  -3.340   5.9460   7.0938   0.00   0.00   0.00
 10811.05300   0.024   5.9460   7.0925   0.00   0.00  -6.68
 10811.08400  -0.137   5.9460   7.0925   0.00   0.00  -6.68
 10811.09700  -1.038   5.9460   7.0925   0.00   0.00  -6.68
 10811.12200  -1.036   5.9460   7.0925   0.00   0.00  -6.68
 10811.14300  -2.587   5.9460   7.0925   0.00   0.00  -6.68
 10811.15800  -0.305   5.9460   7.0925   0.00   0.00  -6.68
 10811.19800  -0.190   5.9460   7.0925   0.00   0.00   0.00
 10811.21900  -1.280   5.9460   7.0925   0.00   0.00   0.00
 10953.32000  -0.863   5.9316   7.0632   7.65   0.00   0.00
 10957.27600  -0.989   5.9320   7.0632   7.68  -3.42   0.00
 10957.30400  -0.510   5.9320   7.0632   0.00   0.00   0.00
 10965.38600  -2.164   5.9328   7.0632   0.00   0.00   0.00
 10965.41400  -0.989   5.9328   7.0632   0.00   0.00   0.00
 10965.45000  -0.240   5.9328   7.0632   0.00   0.00   0.00
 10990.68300  -3.820   6.1183   7.2461   0.00   0.00   0.00
 11032.07300  -2.549   5.9460   7.0695   0.00   0.00   0.00
 11032.10300  -1.801   5.9460   7.0695   0.00   0.00   0.00
 11032.11000  -3.725   5.9460   7.0695   0.00   0.00   0.00
 11033.66200  -2.073   5.9460   7.0694   0.00   0.00   0.00
 11033.69400  -2.549   5.9460   7.0694   0.00   0.00   0.00
 11034.48100  -2.426   5.9460   7.0693   0.00   0.00   0.00
 11522.24000  -1.910   6.1183   7.1940   8.08   0.00   0.00
 11540.67200  -1.717   6.1183   7.1923   0.00   0.00   0.00
 11811.55800  -1.040   5.9320   6.9814   0.00   0.00   0.00
 11820.98200  -1.520   5.9328   6.9814   0.00   0.00   0.00
 11828.17100  -0.333   4.3458   5.3938   0.00   0.00  -7.19
 12039.82200  -1.530   5.7533   6.7828   7.72   0.00   0.00
 12083.27800   0.450   5.7533   6.7791   0.00   0.00   0.00
 12083.34600  -0.790   5.7533   6.7791   0.00   0.00   0.00
 12083.64900   0.410   5.7533   6.7791   7.47   0.00  -6.98
 12267.59700 -11.375   5.1079   6.1183   0.00   0.00   0.00
 12417.93700  -1.664   5.9316   6.9298   0.00   0.00   0.00
 12423.02900  -1.188   5.9320   6.9298   0.00   0.00   0.00
 12426.17400  -1.390   6.5879   7.5854   0.00   0.00   0.00
 12426.17400  -2.670   6.5879   7.5854   0.00   0.00   0.00
 12426.17400  -4.390   6.5879   7.5854   0.00   0.00   0.00
 12433.45200  -0.967   5.9328   6.9298   0.00   0.00   0.00
 12457.13200  -2.260   6.4314   7.4265   0.00   0.00   0.00
 12457.13200  -2.480   6.4314   7.4265   0.00   0.00   0.00
 12457.13200  -2.960   6.4314   7.4265   0.00   0.00   0.00
 12539.83100  -1.460   6.5879   7.5764   0.00   0.00   0.00
 12539.83100  -2.730   6.5879   7.5764   0.00   0.00   0.00
 12539.83100  -4.370   6.5879   7.5764   0.00   0.00   0.00
 12683.73300  -1.500   6.5879   7.5652   0.00   0.00   0.00
 12683.73300  -2.770   6.5879   7.5652   0.00   0.00   0.00
 12683.73300  -4.310   6.5879   7.5652   0.00   0.00   0.00
 12735.92000  -2.520   5.7533   6.7266   0.00   0.00   0.00
 12740.20400  -2.040   5.7533   6.7262   0.00   0.00   0.00
 12870.04100  -1.530   6.5879   7.5510   0.00   0.00   0.00
 12870.04100  -2.790   6.5879   7.5510   0.00   0.00   0.00
 12870.04100  -4.220   6.5879   7.5510   0.00   0.00   0.00
 13117.15600  -1.930   6.1183   7.0632   0.00   0.00   0.00
 13117.84000  -1.390   6.5879   7.5328   0.00   0.00   0.00
 13117.84000  -2.650   6.5879   7.5328   0.00   0.00   0.00
 13117.84000  -3.960   6.5879   7.5328   0.00   0.00   0.00
 13383.25000  -1.970   6.4314   7.3576   0.00   0.00   0.00
 13383.25000  -2.190   6.4314   7.3576   0.00   0.00   0.00
 13383.25000  -2.670   6.4314   7.3576   0.00   0.00   0.00
 13457.61000  -2.540   6.5879   7.5090   0.00   0.00   0.00
 13458.90300  -2.490   6.5879   7.5089   0.00   0.00   0.00
 13458.90300  -1.332   6.5879   7.5089   0.00   0.00   0.00
 13545.65300  -2.730   6.5162   7.4313   0.00   0.00   0.00
 13949.72400  -2.310   6.5879   7.4765   0.00   0.00   0.00
 13949.72500  -1.180   6.5879   7.4765   0.00   0.00   0.00
 14306.92100  -1.180   6.7191   7.5854   0.00   0.00   0.00
 14306.92100  -2.460   6.7191   7.5854   0.00   0.00   0.00
 14306.92100  -2.650   6.7191   7.5854   0.00   0.00   0.00
 14306.92100  -3.790   6.7191   7.5854   0.00   0.00   0.00
 14306.99900  -1.400   6.7191   7.5854   0.00   0.00   0.00
 14306.99900  -2.410   6.7191   7.5854   0.00   0.00   0.00
 14306.99900  -3.020   6.7191   7.5854   0.00   0.00   0.00
 14307.08300  -1.510   6.7191   7.5854   0.00   0.00   0.00
 14360.52200  -2.347   6.1183   6.9814   0.00   0.00   0.00
 14457.79500  -1.250   6.7191   7.5764   0.00   0.00   0.00
 14457.79500  -2.520   6.7191   7.5764   0.00   0.00   0.00
 14457.79500  -2.720   6.7191   7.5764   0.00   0.00   0.00
 14457.79500  -3.850   6.7191   7.5764   0.00   0.00   0.00
 14457.87400  -1.470   6.7191   7.5764   0.00   0.00   0.00
 14457.87400  -2.480   6.7191   7.5764   0.00   0.00   0.00
 14457.87400  -3.070   6.7191   7.5764   0.00   0.00   0.00
 14457.96000  -1.580   6.7191   7.5764   0.00   0.00   0.00
 14597.83100  -2.100   6.7261   7.5752   0.00   0.00   0.00
 14600.55300  -1.920   6.7262   7.5752   0.00   0.00   0.00
 14600.55300  -2.230   6.7262   7.5752   0.00   0.00   0.00
 14601.00000  -2.602   6.5162   7.3651   0.00   0.00   0.00
 14606.18500  -1.480   6.7266   7.5752   0.00   0.00   0.00
 14606.18500  -2.400   6.7266   7.5752   0.00   0.00   0.00
 14606.18500  -3.400   6.7266   7.5752   0.00   0.00   0.00
 14615.61900  -1.222   6.1183   6.9664   0.00   0.00   0.00
 14649.41900  -1.290   6.7191   7.5652   0.00   0.00   0.00
 14649.41900  -2.570   6.7191   7.5652   0.00   0.00   0.00
 14649.41900  -2.760   6.7191   7.5652   0.00   0.00   0.00
 14649.41900  -3.900   6.7191   7.5652   0.00   0.00   0.00
 14649.50100  -1.510   6.7191   7.5652   0.00   0.00   0.00
 14649.50100  -2.520   6.7191   7.5652   0.00   0.00   0.00
 14649.50100  -3.090   6.7191   7.5652   0.00   0.00   0.00
 14649.58900  -1.620   6.7191   7.5652   0.00   0.00   0.00
 14679.38300  -2.240   6.7262   7.5706   0.00   0.00   0.00
 14685.07500  -2.710   6.7266   7.5706   0.00   0.00   0.00
 14697.56700  -2.670   6.5879   7.4313   0.00   0.00   0.00
 14700.26900  -0.959   6.5879   7.4311   0.00   0.00   0.00
 14700.29000  -2.090   6.5879   7.4311   0.00   0.00   0.00
 14781.82100  -3.030   6.5879   7.4265   0.00   0.00   0.00
 14781.82100  -3.510   6.5879   7.4265   0.00   0.00   0.00
 14789.61200  -6.640   5.1079   5.9460   0.00   0.00   0.00
 14789.61200 -16.315   5.1079   5.9460   0.00   0.00   0.00
 14789.64100  -6.272   5.1079   5.9460   0.00   0.00   0.00
 14789.68000  -6.418   5.1079   5.9460   0.00   0.00   0.00
 14789.68000 -16.801   5.1079   5.9460   0.00   0.00   0.00
 14798.66300  -2.140   6.7261   7.5637   0.00   0.00   0.00
 14801.46100  -1.960   6.7262   7.5637   0.00   0.00   0.00
 14801.46100  -2.270   6.7262   7.5637   0.00   0.00   0.00
 14807.24800  -1.520   6.7266   7.5637   0.00   0.00   0.00
 14807.24800  -2.440   6.7266   7.5637   0.00   0.00   0.00
 14807.24800  -3.440   6.7266   7.5637   0.00   0.00   0.00
 14811.84400  -2.710   5.9460   6.7828   0.00   0.00   0.00
 14877.52900   0.698   5.9460   6.7791   0.00   0.00   0.00
 14877.60800   0.537   5.9460   6.7791   0.00   0.00   0.00
 14877.64800  -0.365   5.9460   6.7791   0.00   0.00   0.00
 14877.71200  -0.365   5.9460   6.7791   0.00   0.00   0.00
 14877.75200  -1.914   5.9460   6.7791   0.00   0.00   0.00
 14877.78100   0.367   5.9460   6.7791   0.00   0.00   0.00
 14878.19000   0.420   5.9460   6.7791   0.00   0.00   0.00
 14878.23000  -0.630   5.9460   6.7791   0.00   0.00   0.00
 14898.51600  -1.310   6.7191   7.5510   0.00   0.00   0.00
 14898.51600  -2.590   6.7191   7.5510   0.00   0.00   0.00
 14898.51600  -2.780   6.7191   7.5510   0.00   0.00   0.00
 14898.51600  -3.920   6.7191   7.5510   0.00   0.00   0.00
 14898.60000  -1.540   6.7191   7.5510   0.00   0.00   0.00
 14898.60000  -2.540   6.7191   7.5510   0.00   0.00   0.00
 14898.60000  -3.090   6.7191   7.5510   0.00   0.00   0.00
 14898.69100  -1.640   6.7191   7.5510   0.00   0.00   0.00
 14903.00200  -2.280   6.7262   7.5579   0.00   0.00   0.00
 14908.87000  -2.750   6.7266   7.5579   0.00   0.00   0.00
 15024.99700   0.357   5.1079   5.9328   0.00   0.00   0.00
 15040.24600   0.135   5.1079   5.9320   0.00   0.00   0.00
 15047.71400  -0.341   5.1079   5.9316   0.00   0.00   0.00
 15060.61500  -2.160   6.7261   7.5491   0.00   0.00   0.00
 15063.51300  -1.980   6.7262   7.5491   0.00   0.00   0.00
 15063.51300  -2.280   6.7262   7.5491   0.00   0.00   0.00
 15069.50700  -1.530   6.7266   7.5491   0.00   0.00   0.00
 15069.50700  -2.450   6.7266   7.5491   0.00   0.00   0.00
 15069.50700  -3.460   6.7266   7.5491   0.00   0.00   0.00
 15135.30600  -1.659   6.4314   7.2504   0.00   0.00   0.00
 15137.02700  -1.880   6.4314   7.2503   0.00   0.00   0.00
 15137.85000  -2.359   6.4314   7.2503   0.00   0.00   0.00
 15197.28700  -2.290   6.7262   7.5418   0.00   0.00   0.00
 15203.38900  -2.770   6.7266   7.5418   0.00   0.00   0.00
 15231.59300  -1.160   6.7191   7.5328   0.00   0.00   0.00
 15231.59300  -2.440   6.7191   7.5328   0.00   0.00   0.00
 15231.59300  -2.640   6.7191   7.5328   0.00   0.00   0.00
 15231.59300  -3.770   6.7191   7.5328   0.00   0.00   0.00
 15231.68100  -1.400   6.7191   7.5328   0.00   0.00   0.00
 15231.68100  -2.400   6.7191   7.5328   0.00   0.00   0.00
 15231.68100  -2.920   6.7191   7.5328   0.00   0.00   0.00
 15231.77600  -1.500   6.7191   7.5328   0.00   0.00   0.00
 15412.25400  -2.040   6.7261   7.5303   0.00   0.00   0.00
 15415.28900  -1.860   6.7262   7.5303   0.00   0.00   0.00
 15415.28900  -2.170   6.7262   7.5303   0.00   0.00   0.00
 15421.56700  -1.420   6.7266   7.5303   0.00   0.00   0.00
 15421.56700  -2.340   6.7266   7.5303   0.00   0.00   0.00
 15421.56700  -3.340   6.7266   7.5303   0.00   0.00   0.00
 15570.05100  -2.060   6.7791   7.5752   0.00   0.00   0.00
 15570.05100  -3.200   6.7791   7.5752   0.00   0.00   0.00
 15570.57500  -2.230   6.7791   7.5752   0.00   0.00   0.00
 15570.57500  -3.140   6.7791   7.5752   0.00   0.00   0.00
 15570.57500  -4.510   6.7791   7.5752   0.00   0.00   0.00
 15570.68900  -3.340   6.7791   7.5752   0.00   0.00   0.00
 15570.68900  -4.170   6.7791   7.5752   0.00   0.00   0.00
 15570.82000  -1.900   6.7791   7.5752   0.00   0.00   0.00
 15597.32600  -2.180   6.7262   7.5209   0.00   0.00   0.00
 15603.75300  -2.660   6.7266   7.5209   0.00   0.00   0.00
 15643.38000  -2.350   6.7828   7.5752   0.00   0.00   0.00
 15659.72900  -4.050   6.7791   7.5706   0.00   0.00   0.00
 15660.25900  -3.450   6.7791   7.5706   0.00   0.00   0.00
 15660.37500  -2.060   6.7791   7.5706   0.00   0.00   0.00
 15693.31100  -1.018   6.7191   7.5089   0.00   0.00   0.00
 15693.36000  -2.079   6.7191   7.5089   0.00   0.00   0.00
 15693.36000  -3.630   6.7191   7.5089   0.00   0.00   0.00
 15693.45400  -1.180   6.7191   7.5089   0.00   0.00   0.00
 15693.45400  -2.081   6.7191   7.5089   0.00   0.00   0.00
 15693.55500  -1.350   6.7191   7.5089   0.00   0.00   0.00
 15733.90800  -2.060   6.7828   7.5706   0.00   0.00   0.00
 15740.70600  -0.212   5.9316   6.7191   0.00   0.00   0.00
 15748.88600  -0.338   5.9320   6.7191   0.00   0.00   0.00
 15748.98800   0.140   5.9320   6.7191   0.00   0.00   0.00
 15765.64500  -1.514   5.9328   6.7191   0.00   0.00   0.00
 15765.74700  -0.337   5.9328   6.7191   0.00   0.00   0.00
 15765.83900   0.411   5.9328   6.7191   0.00   0.00   0.00
 15798.73400  -2.090   6.7791   7.5637   0.00   0.00   0.00
 15798.73400  -3.230   6.7791   7.5637   0.00   0.00   0.00
 15799.27400  -2.260   6.7791   7.5637   0.00   0.00   0.00
 15799.27400  -3.170   6.7791   7.5637   0.00   0.00   0.00
 15799.27400  -4.540   6.7791   7.5637   0.00   0.00   0.00
 15799.39100  -3.370   6.7791   7.5637   0.00   0.00   0.00
 15799.39100  -4.280   6.7791   7.5637   0.00   0.00   0.00
 15799.52600  -1.930   6.7791   7.5637   0.00   0.00   0.00
 15874.23900  -2.430   6.7828   7.5637   0.00   0.00   0.00
 15879.52100  -1.998   5.9460   6.7266   0.00   0.00   0.00
 15879.56400  -1.250   5.9460   6.7266   0.00   0.00   0.00
 15879.59900  -3.175   5.9460   6.7266   0.00   0.00   0.00
 15886.18800  -1.521   5.9460   6.7262   0.00   0.00   0.00
 15886.26100  -1.998   5.9460   6.7262   0.00   0.00   0.00
 15889.52100  -1.873   5.9460   6.7261   0.00   0.00   0.00
 15902.68000  -1.900   6.7261   7.5055   0.00   0.00   0.00
 15905.91000  -1.547   6.7262   7.5055   0.00   0.00   0.00
 15905.91000  -2.023   6.7262   7.5055   0.00   0.00   0.00
 15912.59000  -2.025   6.7266   7.5055   0.00   0.00   0.00
 15912.59000  -3.201   6.7266   7.5055   0.00   0.00   0.00
 15912.59400  -1.260   6.7266   7.5055   0.00   0.00   0.00
 15912.83000  -1.276   6.7266   7.5055   0.00   0.00   0.00
 15914.47400  -4.000   6.7791   7.5579   0.00   0.00   0.00
 15915.02100  -3.480   6.7791   7.5579   0.00   0.00   0.00
 15915.14000  -2.080   6.7791   7.5579   0.00   0.00   0.00
 15948.37900  -2.000   6.5879   7.3651   0.00   0.00   0.00
 15954.47700  -1.820   6.5879   7.3648   0.00   0.00   0.00
 15954.47700  -0.757   6.5879   7.3648   0.00   0.00   0.00
 15991.09100  -2.150   6.7828   7.5579   0.00   0.00   0.00
 16097.64500  -2.330   6.7791   7.5491   0.00   0.00   0.00
 16097.64500  -3.240   6.7791   7.5491   0.00   0.00   0.00
 16098.20500  -2.270   6.7791   7.5491   0.00   0.00   0.00
 16098.20500  -3.170   6.7791   7.5491   0.00   0.00   0.00
 16098.20500  -4.550   6.7791   7.5491   0.00   0.00   0.00
 16098.32700  -2.970   6.7791   7.5491   0.00   0.00   0.00
 16098.32700  -3.380   6.7791   7.5491   0.00   0.00   0.00
 16098.46700  -1.940   6.7791   7.5491   0.00   0.00   0.00
 16104.19000  -2.720   6.5879   7.3576   0.00   0.00   0.00
 16104.19000  -3.190   6.5879   7.3576   0.00   0.00   0.00
 16163.69900  -2.020   6.7262   7.4931   0.00   0.00   0.00
 16170.60100  -2.500   6.7266   7.4931   0.00   0.00   0.00
 16176.04100  -3.370   6.7828   7.5491   0.00   0.00   0.00
 16197.62000  -2.804   6.7261   7.4913   0.00   0.00   0.00
 16200.97000  -2.327   6.7262   7.4913   0.00   0.00   0.00
 16207.90000  -2.105   6.7266   7.4913   0.00   0.00   0.00
 16250.51100  -3.350   6.7791   7.5418   0.00   0.00   0.00
 16251.08100  -3.490   6.7791   7.5418   0.00   0.00   0.00
 16251.20600  -2.540   6.7791   7.5418   0.00   0.00   0.00
 16265.93400 -13.362   4.3458   5.1079   0.00   0.00   0.00
 16330.40600  -3.150   6.7828   7.5418   0.00   0.00   0.00
 16364.74800  -0.839   6.7191   7.4765   0.00   0.00   0.00
 16364.74800  -1.900   6.7191   7.4765   0.00   0.00   0.00
 16364.74800  -3.450   6.7191   7.4765   0.00   0.00   0.00
 16364.85000  -0.998   6.7191   7.4765   0.00   0.00   0.00
 16364.85000  -1.900   6.7191   7.4765   0.00   0.00   0.00
 16364.96000  -1.169   6.7191   7.4765   0.00   0.00   0.00
 16500.02400  -2.910   6.7791   7.5303   0.00   0.00   0.00
 16500.02400  -4.110   6.7791   7.5303   0.00   0.00   0.00
 16500.61200  -3.140   6.7791   7.5303   0.00   0.00   0.00
 16500.61200  -4.050   6.7791   7.5303   0.00   0.00   0.00
 16500.74000  -4.250   6.7791   7.5303   0.00   0.00   0.00
 16500.88800  -2.810   6.7791   7.5303   0.00   0.00   0.00
 16582.39800  -3.380   6.7828   7.5303   0.00   0.00   0.00
 16595.58300  -2.092   6.5162   7.2631   0.00   0.00   0.00
 16621.19100  -1.714   6.7261   7.4718   0.00   0.00   0.00
 16624.71800  -1.840   6.7262   7.4718   0.00   0.00   0.00
 16624.88100  -1.362   6.7262   7.4718   0.00   0.00   0.00
 16632.01900  -1.080   6.7266   7.4718   0.00   0.00   0.00
 16632.02000  -1.840   6.7266   7.4718   0.00   0.00   0.00
 16632.02000  -3.015   6.7266   7.4718   0.00   0.00   0.00
 16632.23000  -1.092   6.7266   7.4718   0.00   0.00   0.00
 16708.75500  -4.300   6.7791   7.5209   0.00   0.00   0.00
 16709.35800  -4.370   6.7791   7.5209   0.00   0.00   0.00
 16709.48900  -2.860   6.7791   7.5209   0.00   0.00   0.00
 16793.23100  -3.100   6.7828   7.5209   0.00   0.00   0.00
 17010.39500  -1.840   6.7262   7.4549   0.00   0.00   0.00
 17018.03900  -2.320   6.7266   7.4549   0.00   0.00   0.00
 17063.38400  -2.720   6.7791   7.5055   0.00   0.00   0.00
 17063.38400  -3.940   6.7791   7.5055   0.00   0.00   0.00
 17064.01300  -2.970   6.7791   7.5055   0.00   0.00   0.00
 17064.01300  -3.880   6.7791   7.5055   0.00   0.00   0.00
 17064.15000  -4.080   6.7791   7.5055   0.00   0.00   0.00
 17064.30700  -2.640   6.7791   7.5055   0.00   0.00   0.00
 17074.20000  -2.607   6.7261   7.4520   0.00   0.00   0.00
 17077.92000  -2.130   6.7262   7.4520   0.00   0.00   0.00
 17085.63000  -1.908   6.7266   7.4520   0.00   0.00   0.00
 17108.63100   0.064   5.3938   6.1183   0.00   0.00   0.00
 17151.49400  -3.390   6.7828   7.5055   0.00   0.00   0.00
 17360.40600  -4.080   6.7791   7.4931   0.00   0.00   0.00
 17361.05800  -4.200   6.7791   7.4931   0.00   0.00   0.00
 17361.19900  -2.680   6.7791   7.4931   0.00   0.00   0.00
 17403.69900  -3.060   6.7191   7.4313   0.00   0.00   0.00
 17407.40200  -1.684   6.7191   7.4311   0.00   0.00   0.00
 17407.40200  -3.233   6.7191   7.4311   0.00   0.00   0.00
 17407.51700  -0.870   6.7191   7.4311   0.00   0.00   0.00
 17407.51700  -2.220   6.7191   7.4311   0.00   0.00   0.00
 17407.51800  -1.684   6.7191   7.4311   0.00   0.00   0.00
 17407.53600  -0.622   6.7191   7.4311   0.00   0.00   0.00
 17407.53600  -0.952   6.7191   7.4311   0.00   0.00   0.00
 17410.22200  -2.340   6.7828   7.4948   0.00   0.00   0.00
 17451.61800  -3.120   6.7828   7.4931   0.00   0.00   0.00
 17521.84300  -2.350   6.7191   7.4265   0.00   0.00   0.00
 17521.95900  -2.790   6.7191   7.4265   0.00   0.00   0.00
 17521.95900  -3.270   6.7191   7.4265   0.00   0.00   0.00
 17522.08500  -2.970   6.7191   7.4265   0.00   0.00   0.00
 17522.08500  -3.090   6.7191   7.4265   0.00   0.00   0.00
 17522.08500  -4.270   6.7191   7.4265   0.00   0.00   0.00
 17749.61500  -1.495   6.7261   7.4244   0.00   0.00   0.00
 17753.64000  -1.620   6.7262   7.4244   0.00   0.00   0.00
 17753.68700  -1.143   6.7262   7.4244   0.00   0.00   0.00
 17761.96700  -2.796   6.7266   7.4244   0.00   0.00   0.00
 17762.01400  -1.620   6.7266   7.4244   0.00   0.00   0.00
 17762.05500  -0.871   6.7266   7.4244   0.00   0.00   0.00
 17893.34200  -2.510   6.7791   7.4718   0.00   0.00   0.00
 17893.34200  -3.730   6.7791   7.4718   0.00   0.00   0.00
 17894.03400  -2.770   6.7791   7.4718   0.00   0.00   0.00
 17894.03400  -3.670   6.7791   7.4718   0.00   0.00   0.00
 17894.18500  -3.880   6.7791   7.4718   0.00   0.00   0.00
 17894.35800  -2.430   6.7791   7.4718   0.00   0.00   0.00
 17990.25600  -3.540   6.7828   7.4718   0.00   0.00   0.00
 18340.91900  -3.810   6.7791   7.4549   0.00   0.00   0.00
 18341.64600  -3.990   6.7791   7.4549   0.00   0.00   0.00
 18341.80400  -2.460   6.7791   7.4549   0.00   0.00   0.00
 18358.37000  -1.688   6.5879   7.2631   0.00   0.00   0.00
 18374.37600  -1.450   6.5879   7.2625   0.00   0.00   0.00
 18374.53000  -0.502   6.5879   7.2625   0.00   0.00   0.00
 18377.65600  -1.630   6.7262   7.4007   0.00   0.00   0.00
 18386.57900  -2.110   6.7266   7.4007   0.00   0.00   0.00
 18388.51000  -2.140   6.7828   7.4569   0.00   0.00   0.00
 18442.75600  -3.290   6.7828   7.4549   0.00   0.00   0.00
 18512.30000  -2.362   6.7261   7.3956   0.00   0.00   0.00
 18516.70000  -1.884   6.7262   7.3956   0.00   0.00   0.00
 18525.70000  -1.663   6.7266   7.3956   0.00   0.00   0.00
 18710.55500  -2.750   6.5879   7.2504   0.00   0.00   0.00
 18713.14700  -2.270   6.5879   7.2503   0.00   0.00   0.00
 18897.61700  -0.460   5.9320   6.5879   0.00   0.00   0.00
 18921.75300  -0.930   5.9328   6.5879   0.00   0.00   0.00
 18955.20000  -0.582   6.7791   7.4330   0.00   0.00   0.00
 18955.20000  -0.697   6.7791   7.4330   0.00   0.00   0.00
 18955.40000  -1.873   6.7791   7.4330   0.00   0.00   0.00
 19185.35600  -2.800   6.7191   7.3651   0.00   0.00   0.00
 19194.12000  -0.351   6.7191   7.3648   0.00   0.00   0.00
 19194.12000  -1.413   6.7191   7.3648   0.00   0.00   0.00
 19194.12000  -2.962   6.7191   7.3648   0.00   0.00   0.00
 19194.25900  -0.620   6.7191   7.3648   0.00   0.00   0.00
 19194.25900  -1.850   6.7191   7.3648   0.00   0.00   0.00
 19194.26000  -1.413   6.7191   7.3648   0.00   0.00   0.00
 19194.48000  -0.682   6.7191   7.3648   0.00   0.00   0.00
 19204.61000 -19.195   5.1079   5.7533   0.00   0.00   0.00
 19204.61000 -13.064   5.1079   5.7533   0.00   0.00   0.00
 19208.00000  -2.240   6.7791   7.4244   0.00   0.00   0.00
 19208.04800  -3.480   6.7791   7.4244   0.00   0.00   0.00
 19208.74200  -2.510   6.7791   7.4244   0.00   0.00   0.00
 19208.79700  -3.420   6.7791   7.4244   0.00   0.00   0.00
 19208.84500  -4.790   6.7791   7.4244   0.00   0.00   0.00
 19208.97100  -4.760   6.7791   7.4244   0.00   0.00   0.00
 19209.01900  -3.620   6.7791   7.4244   0.00   0.00   0.00
 19209.21800  -2.180   6.7791   7.4244   0.00   0.00   0.00
 19319.72200  -4.380   6.7828   7.4244   0.00   0.00   0.00
 19411.20000  -1.904   6.7191   7.3576   0.00   0.00   0.00
 19411.40000  -2.174   6.7191   7.3576   0.00   0.00   0.00
 19411.40000  -2.652   6.7191   7.3576   0.00   0.00   0.00
 19411.50000  -2.527   6.7191   7.3576   0.00   0.00   0.00
 19411.50000  -2.652   6.7191   7.3576   0.00   0.00   0.00
 19411.50000  -3.827   6.7191   7.3576   0.00   0.00   0.00
 19425.26000  -0.998   6.4314   7.0695   0.00   0.00   0.00
 19430.23000  -1.220   6.4314   7.0694   0.00   0.00   0.00
 19432.65000  -1.697   6.4314   7.0693   0.00   0.00   0.00
 19718.49000  -1.216   6.7261   7.3547   0.00   0.00   0.00
 19723.51000  -1.341   6.7262   7.3547   0.00   0.00   0.00
 19723.54000  -0.864   6.7262   7.3547   0.00   0.00   0.00
 19733.79000  -2.518   6.7266   7.3547   0.00   0.00   0.00
 19733.86000  -1.342   6.7266   7.3547   0.00   0.00   0.00
 19733.87000  -0.593   6.7266   7.3547   0.00   0.00   0.00
 19940.49000  -1.970   6.7791   7.4007   0.00   0.00   0.00
 19941.35000  -3.750   6.7791   7.4007   0.00   0.00   0.00
 19941.53700  -2.190   6.7791   7.4007   0.00   0.00   0.00
 19992.20000  -1.940   6.7828   7.4028   0.00   0.00   0.00
 20060.92300  -2.301   6.7828   7.4007   7.68   0.00   0.00
 20521.58100  -0.420   6.9814   7.5854   0.00   0.00   0.00
 20521.58100  -1.510   6.9814   7.5854   0.00   0.00   0.00
 20521.58100  -1.660   6.9814   7.5854   0.00   0.00   0.00
 20631.79600   0.130   6.1183   6.7191   0.00   0.00   0.00
 20833.42500  -0.490   6.9814   7.5764   0.00   0.00   0.00
 20833.42500  -1.570   6.9814   7.5764   0.00   0.00   0.00
 20833.42500  -1.700   6.9814   7.5764   0.00   0.00   0.00
 20867.06500  -1.360   6.7262   7.3202   0.00   0.00   0.00
 20878.57000  -1.840   6.7266   7.3202   0.00   0.00   0.00
 21060.25100  -1.541   6.7791   7.3677   0.00   0.00   0.00
 21060.25100  -1.541   6.7791   7.3677   0.00   0.00   0.00
 21060.25100  -3.358   6.7791   7.3677   0.00   0.00   0.00
 21060.71100  -0.483   6.7791   7.3677   0.00   0.00   0.00
 21060.89100  -0.366   6.7791   7.3677   0.00   0.00   0.00
 21061.09100  -0.251   6.7791   7.3677   0.00   0.00   0.00
 21208.14100  -2.036   6.7261   7.3105   0.00   0.00   0.00
 21213.72900  -1.559   6.7262   7.3105   0.00   0.00   0.00
 21217.55600  -4.880   5.9320   6.5162   0.00   0.00   0.00
 21225.61600  -1.337   6.7266   7.3105   0.00   0.00   0.00
 21233.65800  -0.530   6.9814   7.5652   0.00   0.00   0.00
 21233.65800  -1.600   6.9814   7.5652   0.00   0.00   0.00
 21233.65800  -1.710   6.9814   7.5652   0.00   0.00   0.00
 21458.86300  -1.319   6.5162   7.0938   0.00   0.00   0.00
 21534.99700  -1.880   6.7791   7.3547   0.00   0.00   0.00
 21535.04800  -3.160   6.7791   7.3547   0.00   0.00   0.00
 21535.12200  -2.204   6.7791   7.3547   0.00   0.00   0.00
 21535.12200  -2.934   6.7791   7.3547   0.00   0.00   0.00
 21535.12200  -4.484   6.7791   7.3547   0.00   0.00   0.00
 21535.91500  -2.190   6.7791   7.3547   0.00   0.00   0.00
 21535.99900  -3.090   6.7791   7.3547   0.00   0.00   0.00
 21536.05000  -4.460   6.7791   7.3547   0.00   0.00   0.00
 21536.12200  -1.873   6.7791   7.3547   0.00   0.00   0.00
 21536.12200  -2.034   6.7791   7.3547   0.00   0.00   0.00
 21536.12200  -2.935   6.7791   7.3547   0.00   0.00   0.00
 21536.51900  -1.860   6.7791   7.3547   0.00   0.00   0.00
 21675.52800  -3.110   6.7828   7.3547   0.00   0.00   0.00
 21761.02000  -0.560   6.9814   7.5510   0.00   0.00   0.00
 21761.02000  -1.620   6.9814   7.5510   0.00   0.00   0.00
 21761.02000  -1.690   6.9814   7.5510   0.00   0.00   0.00
 22446.87400 -13.115   5.3938   5.9460   0.00   0.00   0.00
 22446.87400 -21.200   5.3938   5.9460   0.00   0.00   0.00
 22478.99900  -1.410   6.9814   7.5328   0.00   0.00   0.00
 22478.99900  -2.460   6.9814   7.5328   0.00   0.00   0.00
 22478.99900  -2.490   6.9814   7.5328   0.00   0.00   0.00
 22783.54000  -2.450   6.7191   7.2631   0.00   0.00   0.00
 22807.74500   0.018   6.7191   7.2625   0.00   0.00   0.00
 22807.77500  -1.044   6.7191   7.2625   0.00   0.00   0.00
 22807.77500  -1.046   6.7191   7.2625   0.00   0.00   0.00
 22807.77500  -2.595   6.7191   7.2625   0.00   0.00   0.00
 22808.02500  -0.143   6.7191   7.2625   0.00   0.00   0.00
 22808.03300  -1.230   6.7191   7.2625   0.00   0.00   0.00
 22808.26500  -0.313   6.7191   7.2625   0.00   0.00   0.00
 22842.76600  -2.851   6.9664   7.5090   0.00   0.00   0.00
 22905.44900  -1.626   6.7791   7.3202   0.00   0.00   0.00
 22906.58900  -3.430   6.7791   7.3202   0.00   0.00   0.00
 22906.83600  -1.830   6.7791   7.3202   0.00   0.00   0.00
 22998.33300  -1.564   6.7828   7.3218   0.00   0.00   0.00
 23029.45200  -4.904   5.3938   5.9320   7.57   0.00   0.00
 23064.50800  -2.770   6.7828   7.3202   0.00   0.00   0.00
 23327.63400  -2.240   6.7191   7.2504   0.00   0.00   0.00
 23327.63400  -3.419   6.7191   7.2504   0.00   0.00   0.00
 23328.09400  -1.493   6.7191   7.2504   0.00   0.00   0.00
 23328.31900  -2.530   6.7191   7.2504   0.00   0.00   0.00
 23328.54200  -3.540   6.7191   7.2504   0.00   0.00   0.00
 23331.63300  -1.764   6.7191   7.2503   0.00   0.00   0.00
 23331.63300  -2.242   6.7191   7.2503   0.00   0.00   0.00
 23332.34800  -2.060   6.7191   7.2503   0.00   0.00   0.00
 23332.57100  -2.360   6.7191   7.2503   0.00   0.00   0.00
 23333.63200  -2.116   6.7191   7.2503   0.00   0.00   0.00
 23334.37400  -2.240   6.7191   7.2503   0.00   0.00   0.00
 23494.58800  -2.146   6.9814   7.5090   0.00   0.00   0.00
 23498.58700  -1.578   6.9814   7.5089   0.00   0.00   0.00
 23499.46000  -1.260   6.9814   7.5089   0.00   0.00   0.00
 23499.46000  -2.260   6.9814   7.5089   0.00   0.00   0.00
 23499.46000  -2.280   6.9814   7.5089   0.00   0.00   0.00
 23736.61100  -0.020   7.0632   7.5854   0.00   0.00   0.00
 23736.61100  -1.300   7.0632   7.5854   0.00   0.00   0.00
 23736.61100  -1.500   7.0632   7.5854   0.00   0.00   0.00
 23736.61100  -2.630   7.0632   7.5854   0.00   0.00   0.00
 23736.78000  -0.340   7.0632   7.5854   0.00   0.00   0.00
 23736.78000  -1.260   7.0632   7.5854   0.00   0.00   0.00
 23736.78000  -1.330   7.0632   7.5854   0.00   0.00   0.00
 23736.91000  -0.350   7.0632   7.5854   0.00   0.00   0.00
 23836.67500  -0.833   6.7261   7.2461   0.00   0.00   0.00
 23843.49300  -0.957   6.7262   7.2461   0.00   0.00   0.00
 23843.97200  -0.950   6.7262   7.2461   0.00   0.00   0.00
 23844.13300  -0.481   6.7262   7.2461   0.00   0.00   0.00
 23858.48900  -0.959   6.7266   7.2461   0.00   0.00   0.00
 23858.48900  -2.134   6.7266   7.2461   0.00   0.00   0.00
 23858.99500  -2.120   6.7266   7.2461   0.00   0.00   0.00
 23859.11400  -1.120   6.7266   7.2461   0.00   0.00   0.00
 23859.21900  -0.211   6.7266   7.2461   0.00   0.00   0.00
 24154.81500  -0.080   7.0632   7.5764   0.00   0.00   0.00
 24154.81500  -1.360   7.0632   7.5764   0.00   0.00   0.00
 24154.81500  -1.560   7.0632   7.5764   0.00   0.00   0.00
 24154.81500  -2.690   7.0632   7.5764   0.00   0.00   0.00
 24154.99000  -0.400   7.0632   7.5764   0.00   0.00   0.00
 24154.99000  -1.320   7.0632   7.5764   0.00   0.00   0.00
 24154.99000  -1.370   7.0632   7.5764   0.00   0.00   0.00
 24155.12400  -0.420   7.0632   7.5764   0.00   0.00   0.00
 24500.87400  -1.187   6.5879   7.0938   0.00   0.00   0.00
 24501.96500  -0.920   7.0693   7.5752   0.00   0.00   0.00
 24505.84500  -0.740   7.0694   7.5752   0.00   0.00   0.00
 24505.84500  -1.040   7.0694   7.5752   0.00   0.00   0.00
 24513.66200  -0.300   7.0695   7.5752   0.00   0.00   0.00
 24513.66200  -1.220   7.0695   7.5752   0.00   0.00   0.00
 24513.66200  -2.220   7.0695   7.5752   0.00   0.00   0.00
 24565.58500   0.110   6.5879   7.0925   0.00   0.00   0.00
 24565.82100  -0.870   6.5879   7.0925   0.00   0.00   0.00
 24566.29600  -0.225   6.5879   7.0925   0.00   0.00   0.00
 24694.48800  -0.120   7.0632   7.5652   0.00   0.00   0.00
 24694.48800  -1.400   7.0632   7.5652   0.00   0.00   0.00
 24694.48800  -1.590   7.0632   7.5652   0.00   0.00   0.00
 24694.48800  -2.730   7.0632   7.5652   0.00   0.00   0.00
 24694.67100  -0.450   7.0632   7.5652   0.00   0.00   0.00
 24694.67100  -1.360   7.0632   7.5652   0.00   0.00   0.00
 24694.67100  -1.400   7.0632   7.5652   0.00   0.00   0.00
 24694.81100  -0.450   7.0632   7.5652   0.00   0.00   0.00
 24728.73100  -1.050   7.0694   7.5706   0.00   0.00   0.00
 24736.69200  -1.530   7.0695   7.5706   0.00   0.00   0.00
 24798.59300  -0.556   5.9316   6.4314   0.00   0.00   0.00
 24818.91800  -0.079   5.9320   6.4314   0.00   0.00   0.00
 24860.54600   0.141   5.9328   6.4314   0.00   0.00   0.00
 24955.19000  -1.866   6.9298   7.4265   0.00   0.00   0.00
 24955.19000  -2.088   6.9298   7.4265   0.00   0.00   0.00
 24955.19000  -2.565   6.9298   7.4265   0.00   0.00   0.00
 25031.17000  -1.949   6.9814   7.4766   0.00   0.00   0.00
 25037.16800  -1.447   6.9814   7.4765   0.00   0.00   0.00
 25037.61000  -1.080   6.9814   7.4765   0.00   0.00   0.00
 25037.61000  -1.980   6.9814   7.4765   0.00   0.00   0.00
 25037.61000  -2.070   6.9814   7.4765   0.00   0.00   0.00
 25073.08800  -0.950   7.0693   7.5637   0.00   0.00   0.00
 25077.15100  -0.770   7.0694   7.5637   0.00   0.00   0.00
 25077.15100  -1.070   7.0694   7.5637   0.00   0.00   0.00
 25085.33800  -0.330   7.0695   7.5637   0.00   0.00   0.00
 25085.33800  -1.250   7.0695   7.5637   0.00   0.00   0.00
 25085.33800  -2.250   7.0695   7.5637   0.00   0.00   0.00
 25370.01400  -1.090   7.0694   7.5579   0.00   0.00   0.00
 25378.39300  -1.560   7.0695   7.5579   0.00   0.00   0.00
 25410.66500  -0.130   7.0632   7.5510   0.00   0.00   0.00
 25410.66500  -1.410   7.0632   7.5510   0.00   0.00   0.00
 25410.66500  -1.610   7.0632   7.5510   0.00   0.00   0.00
 25410.66500  -2.740   7.0632   7.5510   0.00   0.00   0.00
 25410.85900  -0.460   7.0632   7.5510   0.00   0.00   0.00
 25410.85900  -1.370   7.0632   7.5510   0.00   0.00   0.00
 25410.85900  -1.390   7.0632   7.5510   0.00   0.00   0.00
 25411.00700  -0.470   7.0632   7.5510   0.00   0.00   0.00
 25411.06600  -1.069   6.7791   7.2669   0.00   0.00   0.00
 25411.53600  -0.011   6.7791   7.2669   0.00   0.00   0.00
 25411.78600   0.105   6.7791   7.2669   0.00   0.00   0.00
 25412.06600  -1.069   6.7791   7.2669   0.00   0.00   0.00
 25412.06600  -2.887   6.7791   7.2669   0.00   0.00   0.00
 25412.14600   0.221   6.7791   7.2669   0.00   0.00   0.00
 25679.41800  -1.480   7.0925   7.5752   0.00   0.00   0.00
 25679.41800  -2.600   7.0925   7.5752   0.00   0.00   0.00
 25679.84700  -1.640   7.0925   7.5752   0.00   0.00   0.00
 25679.84700  -2.540   7.0925   7.5752   0.00   0.00   0.00
 25679.84700  -3.910   7.0925   7.5752   0.00   0.00   0.00
 25680.10400  -2.760   7.0925   7.5752   0.00   0.00   0.00
 25680.10400  -3.470   7.0925   7.5752   0.00   0.00   0.00
 25680.35500  -1.310   7.0925   7.5752   0.00   0.00   0.00
 25737.09200  -2.010   6.5879   7.0695   0.00   0.00   0.00
 25745.71500  -1.530   6.5879   7.0694   0.00   0.00   0.00
 25751.04700  -2.770   7.0938   7.5752   0.00   0.00   0.00
 25834.40100  -0.950   7.0693   7.5491   0.00   0.00   0.00
 25838.71400  -0.770   7.0694   7.5491   0.00   0.00   0.00
 25838.71400  -1.080   7.0694   7.5491   0.00   0.00   0.00
 25847.40500  -0.330   7.0695   7.5491   0.00   0.00   0.00
 25847.40500  -1.250   7.0695   7.5491   0.00   0.00   0.00
 25847.40500  -2.260   7.0695   7.5491   0.00   0.00   0.00
 25924.27000  -3.830   7.0925   7.5706   0.00   0.00   0.00
 25924.70700  -2.860   7.0925   7.5706   0.00   0.00   0.00
 25924.97000  -1.490   7.0925   7.5706   0.00   0.00   0.00
 25997.27400  -2.520   7.0938   7.5706   0.00   0.00   0.00
 26234.83600  -1.090   7.0694   7.5418   0.00   0.00   0.00
 26243.79600  -1.570   7.0695   7.5418   0.00   0.00   0.00
 26307.45500  -1.500   7.0925   7.5637   0.00   0.00   0.00
 26307.45500  -2.620   7.0925   7.5637   0.00   0.00   0.00
 26307.90500  -1.660   7.0925   7.5637   0.00   0.00   0.00
 26307.90500  -2.570   7.0925   7.5637   0.00   0.00   0.00
 26307.90500  -3.940   7.0925   7.5637   0.00   0.00   0.00
 26308.17500  -2.780   7.0925   7.5637   0.00   0.00   0.00
 26308.17500  -3.570   7.0925   7.5637   0.00   0.00   0.00
 26308.43900  -1.330   7.0925   7.5637   0.00   0.00   0.00
 26382.63600  -2.930   7.0938   7.5637   0.00   0.00   0.00
 26392.80900   0.447   6.1183   6.5879   0.00   0.00   0.00
 26395.11800  -0.980   7.0632   7.5328   0.00   0.00   0.00
 26395.11800  -2.260   7.0632   7.5328   0.00   0.00   0.00
 26395.11800  -2.450   7.0632   7.5328   0.00   0.00   0.00
 26395.11800  -3.590   7.0632   7.5328   0.00   0.00   0.00
 26395.32700  -1.310   7.0632   7.5328   0.00   0.00   0.00
 26395.32700  -2.210   7.0632   7.5328   0.00   0.00   0.00
 26395.32700  -2.210   7.0632   7.5328   0.00   0.00   0.00
 26395.48800  -1.310   7.0632   7.5328   0.00   0.00   0.00
 26495.75500  -1.000   6.7262   7.1940   0.00   0.00   0.00
 26514.30700  -1.480   6.7266   7.1940   0.00   0.00   0.00
 26543.20500  -1.360   6.7791   7.2461   0.00   0.00   0.00
 26543.27500  -2.690   6.7791   7.2461   0.00   0.00   0.00
 26543.75800  -1.744   6.7791   7.2461   0.00   0.00   0.00
 26544.57900  -1.720   6.7791   7.2461   0.00   0.00   0.00
 26544.75700  -1.573   6.7791   7.2461   0.00   0.00   0.00
 26544.75700  -2.474   6.7791   7.2461   0.00   0.00   0.00
 26544.75700  -2.475   6.7791   7.2461   0.00   0.00   0.00
 26544.75700  -4.025   6.7791   7.2461   0.00   0.00   0.00
 26545.05800  -2.970   6.7791   7.2461   0.00   0.00   0.00
 26545.12900  -2.830   6.7791   7.2461   0.00   0.00   0.00
 26545.59700  -1.412   6.7791   7.2461   0.00   0.00   0.00
 26629.94400  -3.730   7.0925   7.5579   0.00   0.00   0.00
 26630.40500  -2.880   7.0925   7.5579   0.00   0.00   0.00
 26630.68200  -1.510   7.0925   7.5579   0.00   0.00   0.00
 26661.12100  -2.230   6.9664   7.4313   0.00   0.00   0.00
 26706.98200  -2.690   7.0938   7.5579   0.00   0.00   0.00
 26757.02400  -1.570   6.7828   7.2461   0.00   0.00   0.00
 26886.66100  -1.820   7.0693   7.5303   0.00   0.00   0.00
 26891.33300  -1.640   7.0694   7.5303   0.00   0.00   0.00
 26891.33300  -1.950   7.0694   7.5303   0.00   0.00   0.00
 26900.74700  -1.200   7.0695   7.5303   0.00   0.00   0.00
 26900.74700  -2.120   7.0695   7.5303   0.00   0.00   0.00
 26900.74700  -3.120   7.0695   7.5303   0.00   0.00   0.00
 27146.82700  -1.720   7.0925   7.5491   0.00   0.00   0.00
 27146.82700  -2.610   7.0925   7.5491   0.00   0.00   0.00
 27147.30700  -1.650   7.0925   7.5491   0.00   0.00   0.00
 27147.30700  -2.560   7.0925   7.5491   0.00   0.00   0.00
 27147.30700  -3.930   7.0925   7.5491   0.00   0.00   0.00
 27147.59400  -2.350   7.0925   7.5491   0.00   0.00   0.00
 27147.59400  -2.770   7.0925   7.5491   0.00   0.00   0.00
 27147.87400  -1.320   7.0925   7.5491   0.00   0.00   0.00
 27226.88900  -3.940   7.0938   7.5491   0.00   0.00   0.00
 27450.20800  -1.960   7.0694   7.5209   0.00   0.00   0.00
 27460.01800  -2.440   7.0695   7.5209   0.00   0.00   0.00
 27553.48300  -1.703   6.9814   7.4313   0.00   0.00   0.00
 27553.98700  -2.010   6.9814   7.4313   0.00   0.00   0.00
 27563.48000  -1.312   6.9814   7.4311   0.00   0.00   0.00
 27563.55900  -1.820   6.9814   7.4311   0.00   0.00   0.00
 27584.41300  -2.680   7.0925   7.5418   0.00   0.00   0.00
 27584.90800  -2.880   7.0925   7.5418   0.00   0.00   0.00
 27585.20500  -1.950   7.0925   7.5418   0.00   0.00   0.00
 27667.08000  -3.890   7.0938   7.5418   0.00   0.00   0.00
 27720.87700  -1.538   6.7261   7.1732   0.00   0.00   0.00
 27730.70400  -1.060   6.7262   7.1732   0.00   0.00   0.00
 27751.18900  -0.840   6.7266   7.1732   0.00   0.00   0.00
 27812.41200  -0.791   7.0632   7.5089   0.00   0.00   0.00
 27812.41200  -1.854   7.0632   7.5089   0.00   0.00   0.00
 27812.41200  -3.404   7.0632   7.5089   0.00   0.00   0.00
 27813.32000  -0.810   7.0632   7.5089   0.00   0.00   0.00
 27813.32000  -2.090   7.0632   7.5089   0.00   0.00   0.00
 27813.32000  -2.280   7.0632   7.5089   0.00   0.00   0.00
 27813.32000  -3.420   7.0632   7.5089   0.00   0.00   0.00
 27813.41200  -0.953   7.0632   7.5089   0.00   0.00   0.00
 27813.41200  -1.123   7.0632   7.5089   0.00   0.00   0.00
 27813.41200  -1.854   7.0632   7.5089   0.00   0.00   0.00
 27813.73000  -1.140   7.0632   7.5089   0.00   0.00   0.00
 27851.59800  -2.420   6.9814   7.4265   0.00   0.00   0.00
 27851.59800  -2.900   6.9814   7.4265   0.00   0.00   0.00
 28311.12500  -2.290   7.0925   7.5303   0.00   0.00   0.00
 28311.12500  -3.470   7.0925   7.5303   0.00   0.00   0.00
 28311.64600  -2.510   7.0925   7.5303   0.00   0.00   0.00
 28311.64600  -3.410   7.0925   7.5303   0.00   0.00   0.00
 28311.64600  -4.780   7.0925   7.5303   0.00   0.00   0.00
 28311.95900  -3.630   7.0925   7.5303   0.00   0.00   0.00
 28312.26400  -2.180   7.0925   7.5303   0.00   0.00   0.00
 28398.21300  -4.310   7.0938   7.5303   0.00   0.00   0.00
 28415.24800  -1.644   7.0693   7.5055   0.00   0.00   0.00
 28420.24700  -1.292   7.0694   7.5055   0.00   0.00   0.00
 28420.24700  -1.769   7.0694   7.5055   0.00   0.00   0.00
 28420.59100  -1.470   7.0694   7.5055   0.00   0.00   0.00
 28420.59100  -1.770   7.0694   7.5055   0.00   0.00   0.00
 28430.24400  -1.020   7.0695   7.5055   0.00   0.00   0.00
 28430.24400  -1.768   7.0695   7.5055   0.00   0.00   0.00
 28430.24400  -2.945   7.0695   7.5055   0.00   0.00   0.00
 28431.10700  -1.020   7.0695   7.5055   0.00   0.00   0.00
 28431.10700  -1.940   7.0695   7.5055   0.00   0.00   0.00
 28431.10700  -2.950   7.0695   7.5055   0.00   0.00   0.00
 28931.25400  -3.850   7.0925   7.5209   0.00   0.00   0.00
 28931.79800  -3.730   7.0925   7.5209   0.00   0.00   0.00
 28932.12400  -2.260   7.0925   7.5209   0.00   0.00   0.00
 28971.09600  -1.462   6.9298   7.3576   0.00   0.00   0.00
 28971.09600  -1.685   6.9298   7.3576   0.00   0.00   0.00
 28971.09600  -2.161   6.9298   7.3576   0.00   0.00   0.00
 28971.64000  -1.450   6.9298   7.3576   0.00   0.00   0.00
 28971.64000  -1.670   6.9298   7.3576   0.00   0.00   0.00
 28971.64000  -2.150   6.9298   7.3576   0.00   0.00   0.00
 29022.20400  -4.150   7.0938   7.5209   0.00   0.00   0.00
 29254.24600  -1.790   7.0694   7.4931   0.00   0.00   0.00
 29265.38700  -2.270   7.0695   7.4931   0.00   0.00   0.00
 29370.98700  -2.475   7.0693   7.4913   0.00   0.00   0.00
 29375.98600  -1.998   7.0694   7.4913   0.00   0.00   0.00
 29376.56200  -2.030   7.0694   7.4913   0.00   0.00   0.00
 29386.98300  -1.776   7.0695   7.4913   0.00   0.00   0.00
 29387.79600  -1.810   7.0695   7.4913   0.00   0.00   0.00
 29871.12100  -1.114   6.7791   7.1940   0.00   0.00   0.00
 29872.99600  -2.990   6.7791   7.1940   0.00   0.00   0.00
 29873.41500  -1.300   6.7791   7.1940   0.00   0.00   0.00
 29993.81800  -0.590   7.0632   7.4765   0.00   0.00   0.00
 29993.81800  -0.751   7.0632   7.4765   0.00   0.00   0.00
 29993.81800  -0.921   7.0632   7.4765   0.00   0.00   0.00
 29993.81800  -1.652   7.0632   7.4765   0.00   0.00   0.00
 29993.81800  -1.652   7.0632   7.4765   0.00   0.00   0.00
 29993.81800  -3.202   7.0632   7.4765   0.00   0.00   0.00
 29994.23300  -0.600   7.0632   7.4765   0.00   0.00   0.00
 29994.23300  -1.880   7.0632   7.4765   0.00   0.00   0.00
 29994.23300  -2.080   7.0632   7.4765   0.00   0.00   0.00
 29994.23300  -3.210   7.0632   7.4765   0.00   0.00   0.00
 29994.50300  -0.960   7.0632   7.4765   0.00   0.00   0.00
 29994.50300  -1.760   7.0632   7.4765   0.00   0.00   0.00
 29994.50300  -1.840   7.0632   7.4765   0.00   0.00   0.00
 29994.71000  -0.940   7.0632   7.4765   0.00   0.00   0.00
 30011.23300  -2.080   7.0925   7.5055   0.00   0.00   0.00
 30011.23300  -3.270   7.0925   7.5055   0.00   0.00   0.00
 30011.81300  -1.959   7.0925   7.5055   0.00   0.00   0.00
 30011.81300  -2.117   7.0925   7.5055   0.00   0.00   0.00
 30011.81300  -2.288   7.0925   7.5055   0.00   0.00   0.00
 30011.81300  -3.020   7.0925   7.5055   0.00   0.00   0.00
 30011.81300  -3.021   7.0925   7.5055   0.00   0.00   0.00
 30011.81300  -4.569   7.0925   7.5055   0.00   0.00   0.00
 30012.17000  -3.430   7.0925   7.5055   0.00   0.00   0.00
 30012.51200  -1.980   7.0925   7.5055   0.00   0.00   0.00
 30142.13700  -1.319   6.7828   7.1940   0.00   0.00   0.00
 30268.40500  -1.050   6.7828   7.1923   0.00   0.00   0.00
 30268.93300  -1.032   6.7828   7.1923   0.00   0.00   0.00
 30793.60000  -1.431   7.0693   7.4718   0.00   0.00   0.00
 30793.95500  -1.430   7.0693   7.4718   0.00   0.00   0.00
 30799.59800  -1.079   7.0694   7.4718   0.00   0.00   0.00
 30799.59800  -1.555   7.0694   7.4718   0.00   0.00   0.00
 30800.08400  -1.250   7.0694   7.4718   0.00   0.00   0.00
 30800.08400  -1.560   7.0694   7.4718   0.00   0.00   0.00
 30811.59500  -0.807   7.0695   7.4718   0.00   0.00   0.00
 30811.59500  -1.555   7.0695   7.4718   0.00   0.00   0.00
 30811.59500  -2.732   7.0695   7.4718   0.00   0.00   0.00
 30812.43400  -0.810   7.0695   7.4718   0.00   0.00   0.00
 30812.43400  -1.730   7.0695   7.4718   0.00   0.00   0.00
 30812.43400  -2.730   7.0695   7.4718   0.00   0.00   0.00
 30915.62700  -2.020   7.0938   7.4948   0.00   0.00   0.00
 30941.56000  -1.907   7.0925   7.4931   0.00   0.00   0.00
 30942.34300  -3.570   7.0925   7.4931   0.00   0.00   0.00
 30942.96600  -3.540   7.0925   7.4931   0.00   0.00   0.00
 30943.33900  -2.050   7.0925   7.4931   0.00   0.00   0.00
 31082.52100  -1.793   6.9664   7.3651   0.00   0.00   0.00
 31083.08100  -1.790   6.9664   7.3651   0.00   0.00   0.00
 31149.52300  -0.052   6.1183   6.5162   0.00   0.00   0.00
 31669.77200  -0.490   7.1940   7.5854   0.00   0.00   0.00
 31669.77200  -1.090   7.1940   7.5854   0.00   0.00   0.00
 31669.77200  -1.380   7.1940   7.5854   0.00   0.00   0.00
 32150.58700  -1.580   7.0694   7.4549   0.00   0.00   0.00
 32164.04400  -2.060   7.0695   7.4549   0.00   0.00   0.00
 32303.18900  -1.375   6.9814   7.3651   0.00   0.00   0.00
 32328.18200  -1.215   6.9814   7.3648   0.00   0.00   0.00
 32328.71300  -0.600   6.9814   7.3648   0.00   0.00   0.00
 32328.71300  -1.130   6.9814   7.3648   0.00   0.00   0.00
 32328.71300  -1.470   6.9814   7.3648   0.00   0.00   0.00
 32385.16600  -2.232   7.0693   7.4520   0.00   0.00   0.00
 32385.89500  -2.260   7.0693   7.4520   0.00   0.00   0.00
 32392.16400  -1.755   7.0694   7.4520   0.00   0.00   0.00
 32392.67400  -1.780   7.0694   7.4520   0.00   0.00   0.00
 32406.16100  -1.533   7.0695   7.4520   0.00   0.00   0.00
 32418.64000  -0.560   7.1940   7.5764   0.00   0.00   0.00
 32418.64000  -1.120   7.1940   7.5764   0.00   0.00   0.00
 32418.64000  -1.430   7.1940   7.5764   0.00   0.00   0.00
 32677.02100  -1.820   7.0925   7.4718   0.00   0.00   0.00
 32677.02100  -3.030   7.0925   7.4718   0.00   0.00   0.00
 32677.08700  -2.051   7.0925   7.4718   0.00   0.00   0.00
 32677.08700  -2.783   7.0925   7.4718   0.00   0.00   0.00
 32677.08700  -4.332   7.0925   7.4718   0.00   0.00   0.00
 32677.71500  -2.070   7.0925   7.4718   0.00   0.00   0.00
 32677.71500  -2.970   7.0925   7.4718   0.00   0.00   0.00
 32677.71500  -4.350   7.0925   7.4718   0.00   0.00   0.00
 32678.08600  -1.719   7.0925   7.4718   0.00   0.00   0.00
 32678.08600  -1.881   7.0925   7.4718   0.00   0.00   0.00
 32678.08600  -2.782   7.0925   7.4718   0.00   0.00   0.00
 32678.53800  -1.740   7.0925   7.4718   0.00   0.00   0.00
 32793.09400  -3.740   7.0938   7.4718   0.00   0.00   0.00
 32949.40100  -1.990   6.9814   7.3576   0.00   0.00   0.00
 32949.40100  -2.470   6.9814   7.3576   0.00   0.00   0.00
 33074.00600  -1.920   6.7191   7.0938   0.00   0.00   0.00
 33190.93700   0.585   6.7191   7.0925   0.00   0.00   0.00
 33190.94700  -0.476   6.7191   7.0925   0.00   0.00   0.00
 33190.94700  -2.025   6.7191   7.0925   0.00   0.00   0.00
 33191.35700  -0.900   6.7191   7.0925   0.00   0.00   0.00
 33191.77600   0.425   6.7191   7.0925   0.00   0.00   0.00
 33191.78700  -2.060   6.7191   7.0925   0.00   0.00   0.00
 33191.94600  -0.476   6.7191   7.0925   0.00   0.00   0.00
 33192.50300  -0.740   6.7191   7.0925   0.00   0.00   0.00
 33192.65600   0.255   6.7191   7.0925   0.00   0.00   0.00
 33192.92200   0.170   6.7191   7.0925   0.00   0.00   0.00
 33398.23200  -0.600   7.1940   7.5652   0.00   0.00   0.00
 33398.23200  -1.130   7.1940   7.5652   0.00   0.00   0.00
 33398.23200  -1.460   7.1940   7.5652   0.00   0.00   0.00
 33679.20100  -2.410   7.0632   7.4313   0.00   0.00   0.00
 33692.81000  -0.338   7.0632   7.4311   0.00   0.00   0.00
 33692.81000  -0.498   7.0632   7.4311   0.00   0.00   0.00
 33692.81000  -0.669   7.0632   7.4311   0.00   0.00   0.00
 33692.81000  -1.400   7.0632   7.4311   0.00   0.00   0.00
 33692.81000  -1.400   7.0632   7.4311   0.00   0.00   0.00
 33692.81000  -2.951   7.0632   7.4311   0.00   0.00   0.00
 33693.16200  -0.350   7.0632   7.4311   0.00   0.00   0.00
 33693.16200  -1.630   7.0632   7.4311   0.00   0.00   0.00
 33693.16200  -1.830   7.0632   7.4311   0.00   0.00   0.00
 33693.16200  -2.960   7.0632   7.4311   0.00   0.00   0.00
 33693.50300  -0.730   7.0632   7.4311   0.00   0.00   0.00
 33693.50300  -1.450   7.0632   7.4311   0.00   0.00   0.00
 33693.50300  -1.590   7.0632   7.4311   0.00   0.00   0.00
 33693.76400  -0.690   7.0632   7.4311   0.00   0.00   0.00
 33961.57700  -0.137   5.7533   6.1183   0.00   0.00   0.00
 33962.00500  -0.510   5.7533   6.1183   0.00   0.00   0.00
 34123.69300  -1.688   7.0632   7.4265   0.00   0.00   0.00
 34124.55600  -1.750   7.0632   7.4265   0.00   0.00   0.00
 34124.69200  -1.961   7.0632   7.4265   0.00   0.00   0.00
 34124.69200  -2.311   7.0632   7.4265   0.00   0.00   0.00
 34124.69200  -2.437   7.0632   7.4265   0.00   0.00   0.00
 34124.69200  -2.437   7.0632   7.4265   0.00   0.00   0.00
 34124.69200  -3.613   7.0632   7.4265   0.00   0.00   0.00
 34125.17400  -2.370   7.0632   7.4265   0.00   0.00   0.00
 34125.17400  -2.500   7.0632   7.4265   0.00   0.00   0.00
 34125.17400  -3.680   7.0632   7.4265   0.00   0.00   0.00
 34140.68800  -1.772   7.0938   7.4569   0.00   0.00   0.00
 34200.67200  -1.647   7.0925   7.4549   0.00   0.00   0.00
 34201.20900  -3.220   7.0925   7.4549   0.00   0.00   0.00
 34201.97000  -3.310   7.0925   7.4549   0.00   0.00   0.00
 34202.42600  -1.790   7.0925   7.4549   0.00   0.00   0.00
 34328.38400  -3.350   7.0938   7.4549   0.00   0.00   0.00
 34475.59700  -7.659   5.3938   5.7533   0.00   0.00   0.00
 34721.74900  -0.610   7.1940   7.5510   0.00   0.00   0.00
 34721.74900  -1.090   7.1940   7.5510   0.00   0.00   0.00
 34721.74900  -1.450   7.1940   7.5510   0.00   0.00   0.00
 34904.48000  -1.159   7.0693   7.4244   0.00   0.00   0.00
 34905.24300  -1.160   7.0693   7.4244   0.00   0.00   0.00
 34912.47800  -0.807   7.0694   7.4244   0.00   0.00   0.00
 34912.47800  -1.285   7.0694   7.4244   0.00   0.00   0.00
 34913.11700  -1.280   7.0694   7.4244   0.00   0.00   0.00
 34913.30000  -0.980   7.0694   7.4244   0.00   0.00   0.00
 34928.47300  -0.536   7.0695   7.4244   0.00   0.00   0.00
 34928.47300  -1.284   7.0695   7.4244   0.00   0.00   0.00
 34928.47300  -2.460   7.0695   7.4244   0.00   0.00   0.00
 34928.98700  -2.460   7.0695   7.4244   0.00   0.00   0.00
 34929.17000  -1.460   7.0695   7.4244   0.00   0.00   0.00
 34929.32900  -0.540   7.0695   7.4244   0.00   0.00   0.00
 35276.07000  -4.460   6.4314   6.7828   0.00   0.00   0.00
 35366.35400  -1.551   6.7191   7.0695   0.00   0.00   0.00
 35366.43400  -0.803   6.7191   7.0695   0.00   0.00   0.00
 35366.90800  -1.840   6.7191   7.0695   0.00   0.00   0.00
 35367.35400  -2.727   6.7191   7.0695   0.00   0.00   0.00
 35383.18900  -1.073   6.7191   7.0694   0.00   0.00   0.00
 35383.34900  -1.551   6.7191   7.0694   0.00   0.00   0.00
 35383.70600  -1.670   6.7191   7.0694   0.00   0.00   0.00
 35391.34700  -1.426   6.7191   7.0693   0.00   0.00   0.00
 35391.79800  -1.540   6.7191   7.0693   0.00   0.00   0.00
 36397.07300  -0.200   7.0925   7.4330   0.00   0.00   0.00
 36398.07300  -0.229   7.0925   7.4330   0.00   0.00   0.00
 36399.07200  -0.113   7.0925   7.4330   0.00   0.00   0.00
 36399.07200  -1.404   7.0925   7.4330   0.00   0.00   0.00
 36524.69700   0.110   7.2461   7.5854   0.00   0.00   0.00
 36524.69700  -1.170   7.2461   7.5854   0.00   0.00   0.00
 36524.69700  -1.370   7.2461   7.5854   0.00   0.00   0.00
 36524.69700  -2.500   7.2461   7.5854   0.00   0.00   0.00
 36524.83100  -0.300   7.2461   7.5854   0.00   0.00   0.00
 36524.83100  -0.920   7.2461   7.5854   0.00   0.00   0.00
 36524.83100  -1.130   7.2461   7.5854   0.00   0.00   0.00
 36525.11100  -0.220   7.2461   7.5854   0.00   0.00   0.00
 36586.30400  -1.460   7.1940   7.5328   0.00   0.00   0.00
 36586.30400  -1.880   7.1940   7.5328   0.00   0.00   0.00
 36586.30400  -2.280   7.1940   7.5328   0.00   0.00   0.00
 36761.95400  -0.203   6.7261   7.0632   0.00   0.00   0.00
 36778.96900  -0.330   6.7262   7.0632   0.00   0.00   0.00
 36779.53500  -0.010   6.7262   7.0632   0.00   0.00   0.00
 36780.11900   0.148   6.7262   7.0632   0.00   0.00   0.00
 36814.95900  -0.329   6.7266   7.0632   0.00   0.00   0.00
 36814.95900  -1.505   6.7266   7.0632   0.00   0.00   0.00
 36815.69900   0.430   6.7266   7.0632   0.00   0.00   0.00
 36816.29900   0.419   6.7266   7.0632   0.00   0.00   0.00
 37344.81200  -1.480   7.0925   7.4244   0.00   0.00   0.00
 37344.81500  -1.742   7.0925   7.4244   0.00   0.00   0.00
 37344.81500  -2.474   7.0925   7.4244   0.00   0.00   0.00
 37344.99400  -2.710   7.0925   7.4244   0.00   0.00   0.00
 37345.51000  -1.750   7.0925   7.4244   0.00   0.00   0.00
 37345.71900  -2.660   7.0925   7.4244   0.00   0.00   0.00
 37345.81400  -1.572   7.0925   7.4244   0.00   0.00   0.00
 37345.81400  -2.474   7.0925   7.4244   0.00   0.00   0.00
 37345.81400  -4.025   7.0925   7.4244   0.00   0.00   0.00
 37346.26300  -3.860   7.0925   7.4244   0.00   0.00   0.00
 37346.44500  -2.870   7.0925   7.4244   0.00   0.00   0.00
 37346.81400  -1.411   7.0925   7.4244   0.00   0.00   0.00
 37405.79800  -2.190   7.0998   7.4311   0.00   0.00   0.00
 37405.79800  -2.216   7.0998   7.4311   0.00   0.00   0.00
 37405.79800  -2.334   7.0998   7.4311   0.00   0.00   0.00
 37405.79800  -3.391   7.0998   7.4311   0.00   0.00   0.00
 37405.79800  -3.392   7.0998   7.4311   0.00   0.00   0.00
 37405.79800  -5.209   7.0998   7.4311   0.00   0.00   0.00
 37411.20700  -1.320   7.0694   7.4007   0.00   0.00   0.00
 37429.43000  -1.800   7.0695   7.4007   0.00   0.00   0.00
 37496.49200  -2.550   7.0938   7.4244   0.00   0.00   0.00
 37524.38700   0.050   7.2461   7.5764   0.00   0.00   0.00
 37524.38700  -1.230   7.2461   7.5764   0.00   0.00   0.00
 37524.38700  -1.420   7.2461   7.5764   0.00   0.00   0.00
 37524.38700  -2.560   7.2461   7.5764   0.00   0.00   0.00
 37524.52800  -0.360   7.2461   7.5764   0.00   0.00   0.00
 37524.52800  -0.960   7.2461   7.5764   0.00   0.00   0.00
 37524.52800  -1.180   7.2461   7.5764   0.00   0.00   0.00
 37524.82400  -0.280   7.2461   7.5764   0.00   0.00   0.00
 37981.64100  -1.907   7.0693   7.3956   0.00   0.00   0.00
 37982.52300  -1.930   7.0693   7.3956   0.00   0.00   0.00
 37991.63800  -1.429   7.0694   7.3956   0.00   0.00   0.00
 38009.63400  -1.208   7.0695   7.3956   0.00   0.00   0.00
 38010.64000  -1.230   7.0695   7.3956   0.00   0.00   0.00
 38149.07300  -0.750   7.2503   7.5752   0.00   0.00   0.00
 38153.89200  -0.570   7.2503   7.5752   0.00   0.00   0.00
 38153.89200  -0.870   7.2503   7.5752   0.00   0.00   0.00
 38164.67000  -0.120   7.2504   7.5752   0.00   0.00   0.00
 38164.67000  -1.040   7.2504   7.5752   0.00   0.00   0.00
 38164.67000  -2.050   7.2504   7.5752   0.00   0.00   0.00
 38657.45700   0.921   6.7791   7.0998   0.00   0.00   0.00
 38657.63700   0.803   6.7791   7.0998   0.00   0.00   0.00
 38658.19700  -0.254   6.7791   7.0998   0.00   0.00   0.00
 38658.45700  -0.254   6.7791   7.0998   0.00   0.00   0.00
 38658.90700  -2.071   6.7791   7.0998   0.00   0.00   0.00
 38659.45600  -0.837   6.9298   7.2504   0.00   0.00   0.00
 38670.45300  -1.059   6.9298   7.2503   0.00   0.00   0.00
 38670.88100  -1.060   6.9298   7.2503   0.00   0.00   0.00
 38675.45200  -1.537   6.9298   7.2503   0.00   0.00   0.00
 38696.92700  -0.890   7.2503   7.5706   0.00   0.00   0.00
 38708.01400  -1.360   7.2504   7.5706   0.00   0.00   0.00
 38843.11400   0.020   7.2461   7.5652   0.00   0.00   0.00
 38843.11400  -1.250   7.2461   7.5652   0.00   0.00   0.00
 38843.11400  -1.450   7.2461   7.5652   0.00   0.00   0.00
 38843.11400  -2.580   7.2461   7.5652   0.00   0.00   0.00
 38843.26500  -0.390   7.2461   7.5652   0.00   0.00   0.00
 38843.26500  -0.980   7.2461   7.5652   0.00   0.00   0.00
 38843.26500  -1.210   7.2461   7.5652   0.00   0.00   0.00
 38843.58200  -0.310   7.2461   7.5652   0.00   0.00   0.00
 39357.26600  -1.799   7.1940   7.5090   0.00   0.00   0.00
 39368.26300  -2.105   7.1940   7.5089   0.00   0.00   0.00
 39368.78400  -1.300   7.1940   7.5089   0.00   0.00   0.00
 39368.78400  -1.630   7.1940   7.5089   0.00   0.00   0.00
 39368.78400  -2.080   7.1940   7.5089   0.00   0.00   0.00
 39551.79400  -0.760   7.2503   7.5637   0.00   0.00   0.00
 39556.97400  -0.590   7.2503   7.5637   0.00   0.00   0.00
 39556.97400  -0.890   7.2503   7.5637   0.00   0.00   0.00
 39568.56000  -0.140   7.2504   7.5637   0.00   0.00   0.00
 39568.56000  -1.060   7.2504   7.5637   0.00   0.00   0.00
 39568.56000  -2.070   7.2504   7.5637   0.00   0.00   0.00
 39643.67100  -1.110   7.2625   7.5752   0.00   0.00   0.00
 39643.67100  -2.220   7.2625   7.5752   0.00   0.00   0.00
 39644.15900  -0.910   7.2625   7.5752   0.00   0.00   0.00
 39644.15900  -1.240   7.2625   7.5752   0.00   0.00   0.00
 39644.15900  -2.150   7.2625   7.5752   0.00   0.00   0.00
 39644.15900  -2.350   7.2625   7.5752   0.00   0.00   0.00
 39644.15900  -2.790   7.2625   7.5752   0.00   0.00   0.00
 39644.15900  -3.520   7.2625   7.5752   0.00   0.00   0.00
 39718.37400  -3.740   7.2631   7.5752   0.00   0.00   0.00
 40115.06000  -1.444   7.0938   7.4028   0.00   0.00   0.00
 40115.57100  -1.440   7.0938   7.4028   0.00   0.00   0.00
 40217.03200  -1.300   7.0925   7.4007   0.00   0.00   0.00
 40218.12900  -3.000   7.0925   7.4007   0.00   0.00   0.00
 40218.76000  -1.440   7.0925   7.4007   0.00   0.00   0.00
 40230.26700  -3.520   7.2625   7.5706   0.00   0.00   0.00
 40230.76900  -1.130   7.2625   7.5706   0.00   0.00   0.00
 40230.76900  -2.470   7.2625   7.5706   0.00   0.00   0.00
 40290.63000  -0.910   7.2503   7.5579   0.00   0.00   0.00
 40302.64900  -1.380   7.2504   7.5579   0.00   0.00   0.00
 40307.19900  -3.720   7.2631   7.5706   0.00   0.00   0.00
 40393.04100  -2.230   7.0938   7.4007   0.00   0.00   0.00
 40644.99100   0.030   7.2461   7.5510   0.00   0.00   0.00
 40644.99100  -1.250   7.2461   7.5510   0.00   0.00   0.00
 40644.99100  -1.450   7.2461   7.5510   0.00   0.00   0.00
 40644.99100  -2.580   7.2461   7.5510   0.00   0.00   0.00
 40645.15600  -0.400   7.2461   7.5510   0.00   0.00   0.00
 40645.15600  -0.950   7.2461   7.5510   0.00   0.00   0.00
 40645.15600  -1.210   7.2461   7.5510   0.00   0.00   0.00
 40645.50300  -0.310   7.2461   7.5510   0.00   0.00   0.00
 41057.71200  -2.080   7.0632   7.3651   0.00   0.00   0.00
 41097.79200  -0.003   7.0632   7.3648   0.00   0.00   0.00
 41097.79200  -0.164   7.0632   7.3648   0.00   0.00   0.00
 41097.79200  -1.065   7.0632   7.3648   0.00   0.00   0.00
 41097.79200  -1.066   7.0632   7.3648   0.00   0.00   0.00
 41097.79200  -2.616   7.0632   7.3648   0.00   0.00   0.00
 41098.50800  -0.440   7.0632   7.3648   0.00   0.00   0.00
 41098.50800  -1.020   7.0632   7.3648   0.00   0.00   0.00
 41098.50800  -1.260   7.0632   7.3648   0.00   0.00   0.00
 41098.79200  -0.335   7.0632   7.3648   0.00   0.00   0.00
 41160.64200  -1.110   7.2625   7.5637   0.00   0.00   0.00
 41160.64200  -2.230   7.2625   7.5637   0.00   0.00   0.00
 41161.16700  -0.920   7.2625   7.5637   0.00   0.00   0.00
 41161.16700  -1.250   7.2625   7.5637   0.00   0.00   0.00
 41161.16700  -2.160   7.2625   7.5637   0.00   0.00   0.00
 41161.16700  -2.350   7.2625   7.5637   0.00   0.00   0.00
 41161.16700  -2.860   7.2625   7.5637   0.00   0.00   0.00
 41161.16700  -3.530   7.2625   7.5637   0.00   0.00   0.00
 41241.17700  -4.710   7.2631   7.5637   0.00   0.00   0.00
 41480.03700  -0.750   7.2503   7.5491   0.00   0.00   0.00
 41485.73400  -0.570   7.2503   7.5491   0.00   0.00   0.00
 41485.73400  -0.880   7.2503   7.5491   0.00   0.00   0.00
 41498.47800  -0.130   7.2504   7.5491   0.00   0.00   0.00
 41498.47800  -1.050   7.2504   7.5491   0.00   0.00   0.00
 41498.47800  -2.050   7.2504   7.5491   0.00   0.00   0.00
 41770.60900  -1.111   6.9664   7.2631   0.00   0.00   0.00
 41955.58700  -3.390   7.2625   7.5579   0.00   0.00   0.00
 41956.13300  -1.130   7.2625   7.5579   0.00   0.00   0.00
 41956.13300  -2.480   7.2625   7.5579   0.00   0.00   0.00
 42001.18600   0.474   6.4314   6.7266   0.00   0.00   0.00
 42001.82200   0.470   6.4314   6.7266   0.00   0.00   0.00
 42047.84300   0.252   6.4314   6.7262   0.00   0.00   0.00
 42048.46000   0.250   6.4314   6.7262   0.00   0.00   0.00
 42070.66700  -0.226   6.4314   6.7261   0.00   0.00   0.00
 42105.51700  -1.284   7.0632   7.3576   0.00   0.00   0.00
 42106.33600  -1.340   7.0632   7.3576   0.00   0.00   0.00
 42106.51700  -1.555   7.0632   7.3576   0.00   0.00   0.00
 42106.51700  -1.908   7.0632   7.3576   0.00   0.00   0.00
 42106.51700  -2.032   7.0632   7.3576   0.00   0.00   0.00
 42106.51700  -2.033   7.0632   7.3576   0.00   0.00   0.00
 42106.51700  -3.209   7.0632   7.3576   0.00   0.00   0.00
 42107.27600  -1.960   7.0632   7.3576   0.00   0.00   0.00
 42107.27600  -2.090   7.0632   7.3576   0.00   0.00   0.00
 42107.27600  -3.270   7.0632   7.3576   0.00   0.00   0.00
 42516.44200  -0.900   7.2503   7.5418   0.00   0.00   0.00
 42529.82700  -1.370   7.2504   7.5418   0.00   0.00   0.00
 43223.58500  -0.800   7.2461   7.5328   0.00   0.00   0.00
 43223.58500  -2.080   7.2461   7.5328   0.00   0.00   0.00
 43223.58500  -2.270   7.2461   7.5328   0.00   0.00   0.00
 43223.58500  -3.410   7.2461   7.5328   0.00   0.00   0.00
 43223.77200  -1.240   7.2461   7.5328   0.00   0.00   0.00
 43223.77200  -1.760   7.2461   7.5328   0.00   0.00   0.00
 43223.77200  -2.040   7.2461   7.5328   0.00   0.00   0.00
 43224.16500  -1.130   7.2461   7.5328   0.00   0.00   0.00
 43253.09500  -1.310   7.2625   7.5491   0.00   0.00   0.00
 43253.09500  -2.200   7.2625   7.5491   0.00   0.00   0.00
 43253.67500  -0.900   7.2625   7.5491   0.00   0.00   0.00
 43253.67500  -1.230   7.2625   7.5491   0.00   0.00   0.00
 43253.67500  -1.880   7.2625   7.5491   0.00   0.00   0.00
 43253.67500  -2.130   7.2625   7.5491   0.00   0.00   0.00
 43253.67500  -2.330   7.2625   7.5491   0.00   0.00   0.00
 43253.67500  -3.500   7.2625   7.5491   0.00   0.00   0.00
 43433.15500  -0.785   7.0693   7.3547   0.00   0.00   0.00
 43434.02100  -0.780   7.0693   7.3547   0.00   0.00   0.00
 43446.15200  -0.433   7.0694   7.3547   0.00   0.00   0.00
 43446.15200  -0.911   7.0694   7.3547   0.00   0.00   0.00
 43470.14500  -0.912   7.0695   7.3547   0.00   0.00   0.00
 43470.14500  -2.086   7.0695   7.3547   0.00   0.00   0.00
 43470.79300  -2.080   7.0695   7.3547   0.00   0.00   0.00
 43471.13300  -1.080   7.0695   7.3547   0.00   0.00   0.00
 43471.14500  -0.164   7.0695   7.3547   0.00   0.00   0.00
 43601.11000  -2.115   7.1923   7.4766   0.00   0.00   0.00
 43621.73900  -0.330   6.7791   7.0632   0.00   0.00   0.00
 43622.31000  -1.870   6.7791   7.0632   0.00   0.00   0.00
 43625.10300  -0.926   6.7791   7.0632   0.00   0.00   0.00
 43625.10300  -1.657   6.7791   7.0632   0.00   0.00   0.00
 43625.85100  -1.800   6.7791   7.0632   0.00   0.00   0.00
 43626.10300  -3.208   6.7791   7.0632   0.00   0.00   0.00
 43626.74300  -0.755   6.7791   7.0632   0.00   0.00   0.00
 43627.10300  -1.657   6.7791   7.0632   0.00   0.00   0.00
 43628.34200  -0.594   6.7791   7.0632   0.00   0.00   0.00
 43865.03800  -1.551   7.1940   7.4766   0.00   0.00   0.00
 43885.03200  -2.125   7.1940   7.4765   0.00   0.00   0.00
 43885.47600  -1.110   7.1940   7.4765   0.00   0.00   0.00
 43885.47600  -1.310   7.1940   7.4765   0.00   0.00   0.00
 43885.47600  -1.820   7.1940   7.4765   0.00   0.00   0.00
 44004.80000  -0.871   6.9814   7.2631   0.00   0.00   0.00
 44096.47000  -0.220   6.9814   7.2625   0.00   0.00   0.00
 44096.47000  -0.920   6.9814   7.2625   0.00   0.00   0.00
 44096.97500  -1.510   6.9814   7.2625   0.00   0.00   0.00
 44202.24100   0.300   6.7828   7.0632   0.00   0.00   0.00
 44261.36100  -1.600   7.2503   7.5303   0.00   0.00   0.00
 44267.84900  -1.420   7.2503   7.5303   0.00   0.00   0.00
 44267.84900  -1.720   7.2503   7.5303   0.00   0.00   0.00
 44282.35900  -0.980   7.2504   7.5303   0.00   0.00   0.00
 44282.35900  -1.900   7.2504   7.5303   0.00   0.00   0.00
 44282.35900  -2.900   7.2504   7.5303   0.00   0.00   0.00
 44374.68100  -2.270   7.2625   7.5418   0.00   0.00   0.00
 44375.29100  -1.530   7.2625   7.5418   0.00   0.00   0.00
 44375.29100  -2.450   7.2625   7.5418   0.00   0.00   0.00
 44468.29800  -4.340   7.2631   7.5418   0.00   0.00   0.00
 45044.71600   0.209   7.0925   7.3677   0.00   0.00   0.00
 45046.71600   0.063   7.0925   7.3677   0.00   0.00   0.00
 45046.71600   0.182   7.0925   7.3677   0.00   0.00   0.00
 45046.71600  -0.994   7.0925   7.3677   0.00   0.00   0.00
 45047.71500   0.297   7.0925   7.3677   0.00   0.00   0.00
 45047.71500  -0.993   7.0925   7.3677   0.00   0.00   0.00
 45047.71500  -2.813   7.0925   7.3677   0.00   0.00   0.00
 45802.95600  -1.750   7.2503   7.5209   0.00   0.00   0.00
 45818.49000  -2.220   7.2504   7.5209   0.00   0.00   0.00
 46083.57500  -1.750   6.9814   7.2504   0.00   0.00   0.00
 46099.30000  -1.260   6.9814   7.2503   0.00   0.00   0.00
 46285.96800  -1.850   7.2625   7.5303   0.00   0.00   0.00
 46285.96800  -3.030   7.2625   7.5303   0.00   0.00   0.00
 46286.63300  -1.720   7.2625   7.5303   0.00   0.00   0.00
 46286.63300  -2.050   7.2625   7.5303   0.00   0.00   0.00
 46286.63300  -2.960   7.2625   7.5303   0.00   0.00   0.00
 46286.63300  -3.150   7.2625   7.5303   0.00   0.00   0.00
 46286.63300  -4.330   7.2625   7.5303   0.00   0.00   0.00
 46286.63300  -4.570   7.2625   7.5303   0.00   0.00   0.00
 46387.83300  -3.930   7.2631   7.5303   0.00   0.00   0.00
 46491.31200   0.246   6.5162   6.7828   0.00   0.00   0.00
 46491.81200   0.260   6.5162   6.7828   0.00   0.00   0.00
 46739.14400  -0.560   7.3202   7.5854   0.00   0.00   0.00
 46739.14400  -0.720   7.3202   7.5854   0.00   0.00   0.00
 46739.14400  -1.260   7.3202   7.5854   0.00   0.00   0.00
 46759.24900  -1.724   7.0998   7.3648   0.00   0.00   0.00
 46759.24900  -1.751   7.0998   7.3648   0.00   0.00   0.00
 46759.24900  -1.869   7.0998   7.3648   0.00   0.00   0.00
 46759.24900  -2.925   7.0998   7.3648   0.00   0.00   0.00
 46759.24900  -2.927   7.0998   7.3648   0.00   0.00   0.00
 46759.24900  -4.743   7.0998   7.3648   0.00   0.00   0.00
 47161.13900  -0.595   7.2461   7.5089   0.00   0.00   0.00
 47161.13900  -0.756   7.2461   7.5089   0.00   0.00   0.00
 47161.13900  -1.657   7.2461   7.5089   0.00   0.00   0.00
 47161.13900  -1.658   7.2461   7.5089   0.00   0.00   0.00
 47161.13900  -3.207   7.2461   7.5089   0.00   0.00   0.00
 47161.75800  -1.060   7.2461   7.5089   0.00   0.00   0.00
 47161.75800  -1.530   7.2461   7.5089   0.00   0.00   0.00
 47161.75800  -1.840   7.2461   7.5089   0.00   0.00   0.00
 47162.13900  -0.926   7.2461   7.5089   0.00   0.00   0.00
 47277.10800  -0.970   7.0925   7.3547   0.00   0.00   0.00
 47277.35400  -2.260   7.0925   7.3547   0.00   0.00   0.00
 47278.10800  -1.302   7.0925   7.3547   0.00   0.00   0.00
 47278.10800  -2.034   7.0925   7.3547   0.00   0.00   0.00
 47278.10800  -3.583   7.0925   7.3547   0.00   0.00   0.00
 47278.80700  -3.580   7.0925   7.3547   0.00   0.00   0.00
 47279.10700  -1.130   7.0925   7.3547   0.00   0.00   0.00
 47279.10700  -2.034   7.0925   7.3547   0.00   0.00   0.00
 47279.67900  -2.420   7.0925   7.3547   0.00   0.00   0.00
 47280.10700  -0.970   7.0925   7.3547   0.00   0.00   0.00
 47520.46200  -1.410   7.0938   7.3547   0.00   0.00   0.00
 47966.89200  -3.410   7.2625   7.5209   0.00   0.00   0.00
 47967.60500  -1.830   7.2625   7.5209   0.00   0.00   0.00
 47967.60500  -3.290   7.2625   7.5209   0.00   0.00   0.00
 48076.29800  -3.530   7.2631   7.5209   0.00   0.00   0.00
 48388.79000  -0.620   7.3202   7.5764   0.00   0.00   0.00
 48388.79000  -0.740   7.3202   7.5764   0.00   0.00   0.00
 48388.79000  -1.300   7.3202   7.5764   0.00   0.00   0.00
 48561.75800  -1.389   7.2503   7.5055   0.00   0.00   0.00
 48562.25700  -1.390   7.2503   7.5055   0.00   0.00   0.00
 48569.75500  -1.037   7.2503   7.5055   0.00   0.00   0.00
 48569.75500  -1.514   7.2503   7.5055   0.00   0.00   0.00
 48570.65700  -0.460   6.7262   6.9814   0.00   0.00   0.00
 48586.75100  -0.767   7.2504   7.5055   0.00   0.00   0.00
 48586.75100  -1.515   7.2504   7.5055   0.00   0.00   0.00
 48586.75100  -2.690   7.2504   7.5055   0.00   0.00   0.00
 48587.53500  -0.760   7.2504   7.5055   0.00   0.00   0.00
 48587.53500  -1.690   7.2504   7.5055   0.00   0.00   0.00
 48587.53500  -2.690   7.2504   7.5055   0.00   0.00   0.00
 48633.03400  -0.930   6.7266   6.9814   0.00   0.00   0.00
 48942.65400  -1.374   7.1732   7.4265   0.00   0.00   0.00
 48942.65400  -1.596   7.1732   7.4265   0.00   0.00   0.00
 48942.65400  -2.073   7.1732   7.4265   0.00   0.00   0.00
 49410.85700  -0.970   7.0694   7.3202   0.00   0.00   0.00
 49442.64900  -1.450   7.0695   7.3202   0.00   0.00   0.00
 50604.22200  -0.660   7.3202   7.5652   0.00   0.00   0.00
 50604.22200  -0.730   7.3202   7.5652   0.00   0.00   0.00
 50604.22200  -1.310   7.3202   7.5652   0.00   0.00   0.00
 51010.32600  -1.590   7.2625   7.5055   0.00   0.00   0.00
 51010.32600  -2.790   7.2625   7.5055   0.00   0.00   0.00
 51011.09000  -1.485   7.2625   7.5055   0.00   0.00   0.00
 51011.09000  -1.646   7.2625   7.5055   0.00   0.00   0.00
 51011.09000  -1.815   7.2625   7.5055   0.00   0.00   0.00
 51011.09000  -2.546   7.2625   7.5055   0.00   0.00   0.00
 51011.09000  -2.547   7.2625   7.5055   0.00   0.00   0.00
 51011.09000  -4.097   7.2625   7.5055   0.00   0.00   0.00
 51056.54100  -1.540   7.2503   7.4931   0.00   0.00   0.00
 51075.84300  -2.020   7.2504   7.4931   0.00   0.00   0.00
 51134.07400  -3.100   7.2631   7.5055   0.00   0.00   0.00
 51219.03300  -2.005   7.2669   7.5089   0.00   0.00   0.00
 51219.03300  -2.093   7.2669   7.5089   0.00   0.00   0.00
 51219.03300  -2.120   7.2669   7.5089   0.00   0.00   0.00
 51219.03300  -2.238   7.2669   7.5089   0.00   0.00   0.00
 51219.03300  -3.296   7.2669   7.5089   0.00   0.00   0.00
 51219.03300  -3.296   7.2669   7.5089   0.00   0.00   0.00
 51219.03300  -5.114   7.2669   7.5089   0.00   0.00   0.00
 51381.98900  -1.409   7.0693   7.3105   0.00   0.00   0.00
 51398.98400  -0.932   7.0694   7.3105   0.00   0.00   0.00
 51420.97800  -2.162   7.2503   7.4913   0.00   0.00   0.00
 51421.51900  -2.190   7.2503   7.4913   0.00   0.00   0.00
 51429.97600  -1.685   7.2503   7.4913   0.00   0.00   0.00
 51432.97500  -0.710   7.0695   7.3105   0.00   0.00   0.00
 51433.87400  -0.730   7.0695   7.3105   0.00   0.00   0.00
 51448.97100  -1.463   7.2504   7.4913   0.00   0.00   0.00
 51449.86100  -1.490   7.2504   7.4913   0.00   0.00   0.00
 51617.82900  -4.560   6.7262   6.9664   0.00   0.00   0.00
 51873.85500  -1.688   7.1923   7.4313   0.00   0.00   0.00
 52248.75300  -1.222   7.1940   7.4313   0.00   0.00   0.00
 52283.60700  -0.880   7.1940   7.4311   0.00   0.00   0.00
 52283.60700  -0.880   7.1940   7.4311   0.00   0.00   0.00
 52283.60700  -1.480   7.1940   7.4311   0.00   0.00   0.00
 53329.77400  -1.800   7.1940   7.4265   0.00   0.00   0.00
 53329.77400  -2.280   7.1940   7.4265   0.00   0.00   0.00
 53504.56300  -1.690   7.2631   7.4948   0.00   0.00   0.00
 53706.02300  -0.670   7.3202   7.5510   0.00   0.00   0.00
 53706.02300  -0.680   7.3202   7.5510   0.00   0.00   0.00
 53706.02300  -1.290   7.3202   7.5510   0.00   0.00   0.00
 53713.95800   0.230   7.3547   7.5854   0.00   0.00   0.00
 53713.95800  -1.050   7.3547   7.5854   0.00   0.00   0.00
 53713.95800  -1.240   7.3547   7.5854   0.00   0.00   0.00
 53713.95800  -2.370   7.3547   7.5854   0.00   0.00   0.00
 53714.27500  -0.250   7.3547   7.5854   0.00   0.00   0.00
 53714.27500  -0.620   7.3547   7.5854   0.00   0.00   0.00
 53714.27500  -1.000   7.3547   7.5854   0.00   0.00   0.00
 53714.79500  -0.100   7.3547   7.5854   0.00   0.00   0.00
 53759.34100  -1.494   7.2625   7.4931   0.00   0.00   0.00
 53760.00000  -3.060   7.2625   7.4931   0.00   0.00   0.00
 53760.89600  -1.580   7.2625   7.4931   0.00   0.00   0.00
 53760.89600  -3.050   7.2625   7.4931   0.00   0.00   0.00
 53793.33200  -0.354   7.2461   7.4765   0.00   0.00   0.00
 53793.33200  -0.515   7.2461   7.4765   0.00   0.00   0.00
 53793.33200  -1.417   7.2461   7.4765   0.00   0.00   0.00
 53793.33200  -1.417   7.2461   7.4765   0.00   0.00   0.00
 53793.33200  -2.967   7.2461   7.4765   0.00   0.00   0.00
 53793.90300  -0.360   7.2461   7.4765   0.00   0.00   0.00
 53793.90300  -1.640   7.2461   7.4765   0.00   0.00   0.00
 53793.90300  -1.840   7.2461   7.4765   0.00   0.00   0.00
 53793.90300  -2.970   7.2461   7.4765   0.00   0.00   0.00
 53794.19200  -0.840   7.2461   7.4765   0.00   0.00   0.00
 53794.19200  -1.240   7.2461   7.4765   0.00   0.00   0.00
 53794.19200  -1.600   7.2461   7.4765   0.00   0.00   0.00
 53794.33100  -0.685   7.2461   7.4765   0.00   0.00   0.00
 53897.46700  -2.760   7.2631   7.4931   0.00   0.00   0.00
 54376.17300  -0.936   7.0938   7.3218   0.00   0.00   0.00
 54425.15900  -0.777   7.0925   7.3202   0.00   0.00   0.00
 54426.00900  -2.030   7.0925   7.3202   0.00   0.00   0.00
 54427.93500  -2.580   7.0925   7.3202   0.00   0.00   0.00
 54429.09100  -0.930   7.0925   7.3202   0.00   0.00   0.00
 54748.07100  -1.130   7.0938   7.3202   0.00   0.00   0.00
 54748.77500  -1.140   7.0938   7.3202   0.00   0.00   0.00
 55904.22400   0.190   7.3547   7.5764   0.00   0.00   0.00
 55904.22400  -1.090   7.3547   7.5764   0.00   0.00   0.00
 55904.22400  -1.280   7.3547   7.5764   0.00   0.00   0.00
 55904.22400  -2.420   7.3547   7.5764   0.00   0.00   0.00
 55904.56800  -0.300   7.3547   7.5764   0.00   0.00   0.00
 55904.56800  -0.650   7.3547   7.5764   0.00   0.00   0.00
 55904.56800  -1.050   7.3547   7.5764   0.00   0.00   0.00
 55905.13100  -0.140   7.3547   7.5764   0.00   0.00   0.00
 55947.74400  -1.123   7.2503   7.4718   0.00   0.00   0.00
 55957.74200  -0.771   7.2503   7.4718   0.00   0.00   0.00
 55957.74200  -1.249   7.2503   7.4718   0.00   0.00   0.00
 55980.73500  -0.500   7.2504   7.4718   0.00   0.00   0.00
 55980.73500  -1.248   7.2504   7.4718   0.00   0.00   0.00
 55980.73500  -2.424   7.2504   7.4718   0.00   0.00   0.00
 55981.32700  -0.500   7.2504   7.4718   0.00   0.00   0.00
 55981.32700  -1.420   7.2504   7.4718   0.00   0.00   0.00
 55981.32700  -2.420   7.2504   7.4718   0.00   0.00   0.00
 56972.31600   0.050   7.3576   7.5752   0.00   0.00   0.00
 56972.31600  -0.390   7.3576   7.5752   0.00   0.00   0.00
 56972.31600  -0.570   7.3576   7.5752   0.00   0.00   0.00
 56972.31600  -0.700   7.3576   7.5752   0.00   0.00   0.00
 56972.31600  -0.870   7.3576   7.5752   0.00   0.00   0.00
 56972.31600  -1.870   7.3576   7.5752   0.00   0.00   0.00
 58191.69000  -0.710   7.3576   7.5706   0.00   0.00   0.00
 58191.69000  -1.190   7.3576   7.5706   0.00   0.00   0.00
 58301.81300  -1.440   7.3202   7.5328   0.00   0.00   0.00
 58301.81300  -1.520   7.3202   7.5328   0.00   0.00   0.00
 58301.81300  -2.080   7.3202   7.5328   0.00   0.00   0.00
 58882.44900   0.170   7.3547   7.5652   0.00   0.00   0.00
 58882.44900  -1.100   7.3547   7.5652   0.00   0.00   0.00
 58882.44900  -1.300   7.3547   7.5652   0.00   0.00   0.00
 58882.44900  -2.430   7.3547   7.5652   0.00   0.00   0.00
 58882.83100  -0.320   7.3547   7.5652   0.00   0.00   0.00
 58882.83100  -0.660   7.3547   7.5652   0.00   0.00   0.00
 58882.83100  -1.060   7.3547   7.5652   0.00   0.00   0.00
 58883.45500  -0.160   7.3547   7.5652   0.00   0.00   0.00
 58928.57600  -0.590   7.3648   7.5752   0.00   0.00   0.00
 58928.57600  -0.790   7.3648   7.5752   0.00   0.00   0.00
 58928.57600  -0.920   7.3648   7.5752   0.00   0.00   0.00
 58928.57600  -1.820   7.3648   7.5752   0.00   0.00   0.00
 58928.57600  -1.870   7.3648   7.5752   0.00   0.00   0.00
 58928.57600  -2.060   7.3648   7.5752   0.00   0.00   0.00
 58928.57600  -2.600   7.3648   7.5752   0.00   0.00   0.00
 58928.57600  -3.200   7.3648   7.5752   0.00   0.00   0.00
 59012.65100  -3.270   7.3651   7.5752   0.00   0.00   0.00
 59019.96700  -4.447   6.5162   6.7262   7.13   0.00   0.00
 59137.87500  -1.680   7.2669   7.4765   0.00   0.00   0.00
 59137.87500  -1.767   7.2669   7.4765   0.00   0.00   0.00
 59137.87500  -1.795   7.2669   7.4765   0.00   0.00   0.00
 59137.87500  -1.912   7.2669   7.4765   0.00   0.00   0.00
 59137.87500  -2.970   7.2669   7.4765   0.00   0.00   0.00
 59137.87500  -2.970   7.2669   7.4765   0.00   0.00   0.00
 59137.87500  -4.788   7.2669   7.4765   0.00   0.00   0.00
 59222.19000  -1.260   7.2625   7.4718   0.00   0.00   0.00
 59222.19000  -2.480   7.2625   7.4718   0.00   0.00   0.00
 59222.85200  -1.179   7.2625   7.4718   0.00   0.00   0.00
 59222.85200  -1.339   7.2625   7.4718   0.00   0.00   0.00
 59222.85200  -1.510   7.2625   7.4718   0.00   0.00   0.00
 59222.85200  -2.240   7.2625   7.4718   0.00   0.00   0.00
 59222.85200  -2.241   7.2625   7.4718   0.00   0.00   0.00
 59222.85200  -3.790   7.2625   7.4718   0.00   0.00   0.00
 59389.05400  -2.290   7.2631   7.4718   0.00   0.00   0.00
 60158.58600   0.050   7.3576   7.5637   0.00   0.00   0.00
 60158.58600  -0.390   7.3576   7.5637   0.00   0.00   0.00
 60158.58600  -0.570   7.3576   7.5637   0.00   0.00   0.00
 60158.58600  -0.700   7.3576   7.5637   0.00   0.00   0.00
 60158.58600  -0.870   7.3576   7.5637   0.00   0.00   0.00
 60158.58600  -1.870   7.3576   7.5637   0.00   0.00   0.00
 60234.08600  -0.830   7.3648   7.5706   0.00   0.00   0.00
 60234.08600  -2.150   7.3648   7.5706   0.00   0.00   0.00
 60321.93100  -2.970   7.3651   7.5706   0.00   0.00   0.00
 60581.50000  -1.290   7.2503   7.4549   0.00   0.00   0.00
 60608.67800  -1.760   7.2504   7.4549   0.00   0.00   0.00
 60847.40900  -0.382   6.7261   6.9298   0.00   0.00   0.00
 60895.39600   0.094   6.7262   6.9298   0.00   0.00   0.00
 60993.36900   0.316   6.7266   6.9298   0.00   0.00   0.00
 61259.29700  -0.034   6.7791   6.9814   0.00   0.00   0.00
 61259.94700  -0.930   6.7791   6.9814   0.00   0.00   0.00
 61268.05700  -2.260   6.7791   6.9814   0.00   0.00   0.00
 61269.82100  -0.280   6.7791   6.9814   0.00   0.00   0.00
 61434.24900  -1.836   7.2503   7.4520   0.00   0.00   0.00
 61446.24600  -1.359   7.2503   7.4520   0.00   0.00   0.00
 61474.23800  -1.137   7.2504   7.4520   0.00   0.00   0.00
 61871.97800  -0.720   7.3576   7.5579   0.00   0.00   0.00
 61871.97800  -1.190   7.3576   7.5579   0.00   0.00   0.00
 62018.52300  -1.580   7.0632   7.2631   0.00   0.00   0.00
 62198.04100   0.503   7.0632   7.2625   0.00   0.00   0.00
 62198.04100  -0.559   7.0632   7.2625   0.00   0.00   0.00
 62198.04100  -2.110   7.0632   7.2625   0.00   0.00   0.00
 62199.04000   0.342   7.0632   7.2625   0.00   0.00   0.00
 62199.04000  -0.559   7.0632   7.2625   0.00   0.00   0.00
 62199.18000   0.480   7.0632   7.2625   0.00   0.00   0.00
 62199.18000  -0.960   7.0632   7.2625   0.00   0.00   0.00
 62199.18000  -2.130   7.0632   7.2625   0.00   0.00   0.00
 62200.04000   0.173   7.0632   7.2625   0.00   0.00   0.00
 62200.34100  -0.320   7.0632   7.2625   0.00   0.00   0.00
 62200.34100  -0.760   7.0632   7.2625   0.00   0.00   0.00
 62200.38000  -0.830   7.0632   7.2625   0.00   0.00   0.00
 62201.23100   0.150   7.0632   7.2625   0.00   0.00   0.00
 62201.54100  -0.030   7.0632   7.2625   0.00   0.00   0.00
 62343.97600  -0.570   7.3648   7.5637   0.00   0.00   0.00
 62343.97600  -0.770   7.3648   7.5637   0.00   0.00   0.00
 62343.97600  -0.910   7.3648   7.5637   0.00   0.00   0.00
 62343.97600  -1.810   7.3648   7.5637   0.00   0.00   0.00
 62343.97600  -1.850   7.3648   7.5637   0.00   0.00   0.00
 62343.97600  -2.050   7.3648   7.5637   0.00   0.00   0.00
 62343.97600  -2.660   7.3648   7.5637   0.00   0.00   0.00
 62343.97600  -3.180   7.3648   7.5637   0.00   0.00   0.00
 62410.98300   0.607   6.7828   6.9814   0.00   0.00   0.00
 62438.08700  -2.850   7.3651   7.5637   0.00   0.00   0.00
 63124.62600   0.190   7.3547   7.5510   0.00   0.00   0.00
 63124.62600  -1.090   7.3547   7.5510   0.00   0.00   0.00
 63124.62600  -1.280   7.3547   7.5510   0.00   0.00   0.00
 63124.62600  -2.410   7.3547   7.5510   0.00   0.00   0.00
 63125.06400  -0.320   7.3547   7.5510   0.00   0.00   0.00
 63125.06400  -0.610   7.3547   7.5510   0.00   0.00   0.00
 63125.06400  -1.040   7.3547   7.5510   0.00   0.00   0.00
 63125.78200  -0.140   7.3547   7.5510   0.00   0.00   0.00
 63599.65900   0.152   6.5879   6.7828   0.00   0.00   0.00
 63961.56000  -1.350   7.2631   7.4569   0.00   0.00   0.00
 64186.02000  -0.810   7.3648   7.5579   0.00   0.00   0.00
 64186.02000  -2.130   7.3648   7.5579   0.00   0.00   0.00
 64186.02000  -4.480   7.3648   7.5579   0.00   0.00   0.00
 64285.77800  -2.550   7.3651   7.5579   0.00   0.00   0.00
 64332.45900 -12.787   5.7533   5.9460   0.00   0.00   0.00
 64332.45900 -14.784   5.7533   5.9460   0.00   0.00   0.00
 64332.45900 -14.873   5.7533   5.9460   0.00   0.00   0.00
 64332.45900 -12.802   5.7533   5.9460   0.00   0.00   0.00
 64333.45900 -15.110   5.7533   5.9460   0.00   0.00   0.00
 64333.45900 -13.534   5.7533   5.9460   0.00   0.00   0.00
 64424.43400  -1.146   7.2625   7.4549   0.00   0.00   0.00
 64425.72200  -2.590   7.2625   7.4549   0.00   0.00   0.00
 64427.00900  -1.240   7.2625   7.4549   0.00   0.00   0.00
 64427.00900  -2.760   7.2625   7.4549   0.00   0.00   0.00
 64622.38000  -1.976   7.2631   7.4549   0.00   0.00   0.00
 64623.24600  -1.980   7.2631   7.4549   0.00   0.00   0.00
 64735.76900   0.080   7.3576   7.5491   0.00   0.00   0.00
 64735.76900  -0.360   7.3576   7.5491   0.00   0.00   0.00
 64735.76900  -0.540   7.3576   7.5491   0.00   0.00   0.00
 64735.76900  -0.660   7.3576   7.5491   0.00   0.00   0.00
 64735.76900  -0.840   7.3576   7.5491   0.00   0.00   0.00
 64735.76900  -1.840   7.3576   7.5491   0.00   0.00   0.00
 64830.68600   0.510   6.5879   6.7791   0.00   0.00   0.00
 64832.66200  -0.900   6.5879   6.7791   0.00   0.00   0.00
 64841.32000   0.516   6.5879   6.7791   0.00   0.00   0.00
 65670.09400  -1.430   7.3202   7.5090   0.00   0.00   0.00
 65701.60400  -1.140   7.3202   7.5089   0.00   0.00   0.00
 65701.60400  -1.350   7.3202   7.5089   0.00   0.00   0.00
 65701.60400  -1.830   7.3202   7.5089   0.00   0.00   0.00
 66213.94600  -2.019   7.3218   7.5090   0.00   0.00   0.00
 66226.94200  -0.623   7.0632   7.2504   0.00   0.00   0.00
 66227.94200  -1.371   7.0632   7.2504   0.00   0.00   0.00
 66228.94200  -2.547   7.0632   7.2504   0.00   0.00   0.00
 66260.93300  -0.894   7.0632   7.2503   0.00   0.00   0.00
 66261.93300  -1.371   7.0632   7.2503   0.00   0.00   0.00
 66275.92900  -1.246   7.0632   7.2503   0.00   0.00   0.00
 66399.89500 -11.824   5.9316   6.1183   0.00   0.00   0.00
 66544.85600 -12.320   5.9320   6.1183   0.00   0.00   0.00
 66544.85600 -11.950   5.9320   6.1183   0.00   0.00   0.00
 66845.77400 -12.766   5.9328   6.1183   0.00   0.00   0.00
 66845.77400 -11.730   5.9328   6.1183   0.00   0.00   0.00
 66926.14900  -1.860   7.2461   7.4313   0.00   0.00   0.00
 66981.73700  -0.031   7.2461   7.4311   0.00   0.00   0.00
 66981.73700  -0.190   7.2461   7.4311   0.00   0.00   0.00
 66981.73700  -1.092   7.2461   7.4311   0.00   0.00   0.00
 66981.73700  -1.094   7.2461   7.4311   0.00   0.00   0.00
 66981.73700  -2.643   7.2461   7.4311   0.00   0.00   0.00
 66982.64900  -0.550   7.2461   7.4311   0.00   0.00   0.00
 66982.64900  -0.850   7.2461   7.4311   0.00   0.00   0.00
 66982.64900  -1.280   7.2461   7.4311   0.00   0.00   0.00
 66983.73600  -0.362   7.2461   7.4311   0.00   0.00   0.00
 67096.74600  -0.430   7.4007   7.5854   0.00   0.00   0.00
 67096.74600  -0.640   7.4007   7.5854   0.00   0.00   0.00
 67096.74600  -1.130   7.4007   7.5854   0.00   0.00   0.00
 67216.67300  -0.759   7.1732   7.3576   0.00   0.00   0.00
 67216.67300  -0.981   7.1732   7.3576   0.00   0.00   0.00
 67216.67300  -1.458   7.1732   7.3576   0.00   0.00   0.00
 67217.78500  -0.740   7.1732   7.3576   0.00   0.00   0.00
 67217.78500  -0.960   7.1732   7.3576   0.00   0.00   0.00
 67217.78500  -1.440   7.1732   7.3576   0.00   0.00   0.00
 67273.37500  -0.520   7.3648   7.5491   0.00   0.00   0.00
 67273.37500  -0.850   7.3648   7.5491   0.00   0.00   0.00
 67273.37500  -0.920   7.3648   7.5491   0.00   0.00   0.00
 67273.37500  -1.560   7.3648   7.5491   0.00   0.00   0.00
 67273.37500  -1.750   7.3648   7.5491   0.00   0.00   0.00
 67273.37500  -1.800   7.3648   7.5491   0.00   0.00   0.00
 67273.37500  -1.990   7.3648   7.5491   0.00   0.00   0.00
 67273.37500  -3.130   7.3648   7.5491   0.00   0.00   0.00
 67280.93600  -0.690   7.3576   7.5418   0.00   0.00   0.00
 67280.93600  -1.170   7.3576   7.5418   0.00   0.00   0.00
 67382.97000  -3.350   7.3651   7.5491   0.00   0.00   0.00
 67533.58600   0.110   6.7828   6.9664   0.00   0.00   0.00
 68708.26600  -1.114   7.2461   7.4265   0.00   0.00   0.00
 68708.26600  -1.383   7.2461   7.4265   0.00   0.00   0.00
 68708.26600  -1.860   7.2461   7.4265   0.00   0.00   0.00
 68708.98600  -1.160   7.2461   7.4265   0.00   0.00   0.00
 68709.45800  -1.600   7.2461   7.4265   0.00   0.00   0.00
 68709.45800  -2.080   7.2461   7.4265   0.00   0.00   0.00
 68710.26600  -1.735   7.2461   7.4265   0.00   0.00   0.00
 68710.26600  -1.860   7.2461   7.4265   0.00   0.00   0.00
 68710.26600  -3.036   7.2461   7.4265   0.00   0.00   0.00
 69037.17600 -14.848   5.7533   5.9328   0.00   0.00   0.00
 69360.08800 -14.750   5.7533   5.9320   0.00   0.00   0.00
 69519.04500 -15.102   5.7533   5.9316   0.00   0.00   0.00
 69570.45400  -0.610   7.3547   7.5328   0.00   0.00   0.00
 69570.45400  -1.890   7.3547   7.5328   0.00   0.00   0.00
 69570.45400  -2.080   7.3547   7.5328   0.00   0.00   0.00
 69570.45400  -3.220   7.3547   7.5328   0.00   0.00   0.00
 69570.98700  -1.130   7.3547   7.5328   0.00   0.00   0.00
 69570.98700  -1.390   7.3547   7.5328   0.00   0.00   0.00
 69570.98700  -1.850   7.3547   7.5328   0.00   0.00   0.00
 69571.85800  -0.940   7.3547   7.5328   0.00   0.00   0.00
 70026.23400  -1.190   7.3648   7.5418   0.00   0.00   0.00
 70026.23400  -1.810   7.3648   7.5418   0.00   0.00   0.00
 70026.23400  -2.080   7.3648   7.5418   0.00   0.00   0.00
 70116.88200  -0.165   7.0693   7.2461   0.00   0.00   0.00
 70144.98900  -3.050   7.3651   7.5418   0.00   0.00   0.00
 70147.87400  -0.290   7.0694   7.2461   0.00   0.00   0.00
 70148.92700  -0.280   7.0694   7.2461   0.00   0.00   0.00
 70149.87300   0.187   7.0694   7.2461   0.00   0.00   0.00
 70211.85600  -1.467   7.0695   7.2461   0.00   0.00   0.00
 70213.02300  -1.460   7.0695   7.2461   0.00   0.00   0.00
 70213.85600  -0.292   7.0695   7.2461   0.00   0.00   0.00
 70214.85500   0.458   7.0695   7.2461   0.00   0.00   0.00
 70549.45700  -0.440   7.4007   7.5764   0.00   0.00   0.00
 70549.45700  -0.700   7.4007   7.5764   0.00   0.00   0.00
 70549.45700  -1.150   7.4007   7.5764   0.00   0.00   0.00
 71071.62200   0.866   7.0925   7.2669   0.00   0.00   0.00
 71075.62100   0.724   7.0925   7.2669   0.00   0.00   0.00
 71077.62000   0.840   7.0925   7.2669   0.00   0.00   0.00
 71077.62000  -0.335   7.0925   7.2669   0.00   0.00   0.00
 71078.62000   0.954   7.0925   7.2669   0.00   0.00   0.00
 71078.62000  -0.336   7.0925   7.2669   0.00   0.00   0.00
 71078.62000  -2.153   7.0925   7.2669   0.00   0.00   0.00
 71179.59200  -0.752   7.2503   7.4244   0.00   0.00   0.00
 71196.58800  -0.399   7.2503   7.4244   0.00   0.00   0.00
 71196.58800  -0.877   7.2503   7.4244   0.00   0.00   0.00
 71197.49300  -0.560   7.2503   7.4244   0.00   0.00   0.00
 71233.57800  -2.053   7.2504   7.4244   0.00   0.00   0.00
 71234.57700  -0.878   7.2504   7.4244   0.00   0.00   0.00
 71235.57700  -0.128   7.2504   7.4244   0.00   0.00   0.00
 71727.44300  -1.031   7.1923   7.3651   0.00   0.00   0.00
 71728.29300  -1.030   7.1923   7.3651   0.00   0.00   0.00
 71774.64000  -0.730   7.3576   7.5303   0.00   0.00   0.00
 71774.64000  -1.170   7.3576   7.5303   0.00   0.00   0.00
 71774.64000  -1.350   7.3576   7.5303   0.00   0.00   0.00
 71774.64000  -1.480   7.3576   7.5303   0.00   0.00   0.00
 71774.64000  -1.650   7.3576   7.5303   0.00   0.00   0.00
 71774.64000  -2.650   7.3576   7.5303   0.00   0.00   0.00
 71937.38600 -14.798   5.9460   6.1183   0.00   0.00   0.00
 71938.26000  -1.150   5.9460   6.1183   0.00   0.00   0.00
 71938.38600 -14.058   5.9460   6.1183   0.00   0.00   0.00
 71939.38500 -15.985   5.9460   6.1183   0.00   0.00   0.00
 72447.24700  -0.716   7.1940   7.3651   0.00   0.00   0.00
 72574.21200  -1.710   7.1940   7.3648   0.00   0.00   0.00
 72574.59900  -0.950   7.1940   7.3648   0.00   0.00   0.00
 72686.18200   0.218   7.2625   7.4330   0.00   0.00   0.00
 72689.18100   0.191   7.2625   7.4330   0.00   0.00   0.00
 72689.18100   0.306   7.2625   7.4330   0.00   0.00   0.00
 72689.18100  -0.985   7.2625   7.4330   0.00   0.00   0.00
 74907.44000  -1.310   7.3648   7.5303   0.00   0.00   0.00
 74907.44000  -1.440   7.3648   7.5303   0.00   0.00   0.00
 74907.44000  -1.640   7.3648   7.5303   0.00   0.00   0.00
 74907.44000  -2.540   7.3648   7.5303   0.00   0.00   0.00
 74907.44000  -2.590   7.3648   7.5303   0.00   0.00   0.00
 74907.44000  -2.780   7.3648   7.5303   0.00   0.00   0.00
 74907.44000  -3.920   7.3648   7.5303   0.00   0.00   0.00
 75043.34400  -2.770   7.3651   7.5303   0.00   0.00   0.00
 75359.61500  -0.410   7.4007   7.5652   0.00   0.00   0.00
 75359.61500  -0.730   7.4007   7.5652   0.00   0.00   0.00
 75359.61500  -1.150   7.4007   7.5652   0.00   0.00   0.00
 75474.42200  -1.217   7.2669   7.4311   0.00   0.00   0.00
 75474.42200  -1.307   7.2669   7.4311   0.00   0.00   0.00
 75474.42200  -1.333   7.2669   7.4311   0.00   0.00   0.00
 75474.42200  -1.451   7.2669   7.4311   0.00   0.00   0.00
 75474.42200  -2.508   7.2669   7.4311   0.00   0.00   0.00
 75474.42200  -2.509   7.2669   7.4311   0.00   0.00   0.00
 75474.42200  -4.326   7.2669   7.4311   0.00   0.00   0.00
 75554.22300  -4.250   6.9298   7.0938   0.00   0.00   0.00
 75779.18000  -1.100   7.1940   7.3576   0.00   0.00   0.00
 75779.18000  -1.570   7.1940   7.3576   0.00   0.00   0.00
 75899.07500  -1.510   7.3576   7.5209   0.00   0.00   0.00
 75899.07500  -1.990   7.3576   7.5209   0.00   0.00   0.00
 76153.23700  -0.952   7.0998   7.2625   0.00   0.00   0.00
 76153.23700  -1.069   7.0998   7.2625   0.00   0.00   0.00
 76153.23700  -2.126   7.0998   7.2625   0.00   0.00   0.00
 76153.23700  -2.127   7.0998   7.2625   0.00   0.00   0.00
 76153.23700  -3.945   7.0998   7.2625   0.00   0.00   0.00
 76156.23600  -0.925   7.0998   7.2625   0.00   0.00   0.00
 76566.74800  -0.750   7.2625   7.4244   0.00   0.00   0.00
 76567.51000  -2.040   7.2625   7.4244   0.00   0.00   0.00
 76568.12400  -0.900   7.2625   7.4244   0.00   0.00   0.00
 76568.12400  -1.071   7.2625   7.4244   0.00   0.00   0.00
 76568.12400  -1.801   7.2625   7.4244   0.00   0.00   0.00
 76569.12300  -0.738   7.2625   7.4244   0.00   0.00   0.00
 76569.12300  -1.801   7.2625   7.4244   0.00   0.00   0.00
 76569.12300  -3.351   7.2625   7.4244   0.00   0.00   0.00
 76845.89500  -1.300   7.2631   7.4244   0.00   0.00   0.00
 76973.04400   0.360   7.4244   7.5854   0.00   0.00   0.00
 76973.04400  -0.920   7.4244   7.5854   0.00   0.00   0.00
 76973.04400  -1.110   7.4244   7.5854   0.00   0.00   0.00
 76973.04400  -2.250   7.4244   7.5854   0.00   0.00   0.00
 76973.81500  -0.190   7.4244   7.5854   0.00   0.00   0.00
 76973.81500  -0.380   7.4244   7.5854   0.00   0.00   0.00
 76973.81500  -0.880   7.4244   7.5854   0.00   0.00   0.00
 76974.70400   0.030   7.4244   7.5854   0.00   0.00   0.00
 79262.38900  -1.100   7.3202   7.4766   0.00   0.00   0.00
 79326.37200  -2.190   7.3202   7.4765   0.00   0.00   0.00
 79326.82700  -1.500   7.3202   7.4765   0.00   0.00   0.00
 79411.07300  -1.430   7.3648   7.5209   0.00   0.00   0.00
 79411.07300  -2.880   7.3648   7.5209   0.00   0.00   0.00
 79411.07300  -3.320   7.3648   7.5209   0.00   0.00   0.00
 79563.82700  -2.490   7.3651   7.5209   0.00   0.00   0.00
 80056.17300  -1.604   7.3218   7.4766   0.00   0.00   0.00
 80372.08700  -0.363   7.3547   7.5089   0.00   0.00   0.00
 80372.08700  -0.524   7.3547   7.5089   0.00   0.00   0.00
 80372.08700  -1.425   7.3547   7.5089   0.00   0.00   0.00
 80372.08700  -1.425   7.3547   7.5089   0.00   0.00   0.00
 80372.08700  -2.976   7.3547   7.5089   0.00   0.00   0.00
 80373.08600  -0.694   7.3547   7.5089   0.00   0.00   0.00
 80374.02100  -0.700   7.3547   7.5089   0.00   0.00   0.00
 80708.44500   0.080   7.0925   7.2461   0.00   0.00   0.00
 80709.09700  -1.470   7.0925   7.2461   0.00   0.00   0.00
 80710.99400  -0.527   7.0925   7.2461   0.00   0.00   0.00
 80712.99400  -1.260   7.0925   7.2461   0.00   0.00   0.00
 80712.99400  -2.808   7.0925   7.2461   0.00   0.00   0.00
 80714.99300  -0.357   7.0925   7.2461   0.00   0.00   0.00
 80715.99300  -1.258   7.0925   7.2461   0.00   0.00   0.00
 80717.99200  -0.196   7.0925   7.2461   0.00   0.00   0.00
 81420.24500   0.410   7.0938   7.2461   0.00   0.00   0.00
 81551.68600   0.330   7.4244   7.5764   0.00   0.00   0.00
 81551.68600  -0.950   7.4244   7.5764   0.00   0.00   0.00
 81551.68600  -1.140   7.4244   7.5764   0.00   0.00   0.00
 81551.68600  -2.280   7.4244   7.5764   0.00   0.00   0.00
 81552.55100  -0.230   7.4244   7.5764   0.00   0.00   0.00
 81552.55100  -0.390   7.4244   7.5764   0.00   0.00   0.00
 81552.55100  -0.900   7.4244   7.5764   0.00   0.00   0.00
 81553.54900   0.000   7.4244   7.5764   0.00   0.00   0.00
 82419.73100  -0.950   7.2503   7.4007   0.00   0.00   0.00
 82451.13600  -0.330   7.4007   7.5510   0.00   0.00   0.00
 82451.13600  -0.740   7.4007   7.5510   0.00   0.00   0.00
 82451.13600  -1.090   7.4007   7.5510   0.00   0.00   0.00
 82470.04400  -1.420   7.2504   7.4007   0.00   0.00   0.00
 83351.60100   0.230   7.4265   7.5752   0.00   0.00   0.00
 83351.60100  -0.210   7.4265   7.5752   0.00   0.00   0.00
 83351.60100  -0.390   7.4265   7.5752   0.00   0.00   0.00
 83351.60100  -0.520   7.4265   7.5752   0.00   0.00   0.00
 83351.60100  -0.690   7.4265   7.5752   0.00   0.00   0.00
 83351.60100  -1.690   7.4265   7.5752   0.00   0.00   0.00
 83811.14900  -0.469   7.3576   7.5055   0.00   0.00   0.00
 83811.14900  -0.740   7.3576   7.5055   0.00   0.00   0.00
 83811.14900  -1.092   7.3576   7.5055   0.00   0.00   0.00
 83811.14900  -1.218   7.3576   7.5055   0.00   0.00   0.00
 83811.14900  -1.218   7.3576   7.5055   0.00   0.00   0.00
 83811.14900  -2.393   7.3576   7.5055   0.00   0.00   0.00
 84346.39400  -4.840   6.7828   6.9298   0.00   0.00   0.00
 85266.75200  -1.329   7.2503   7.3956   0.00   0.00   0.00
 85290.74600  -0.853   7.2503   7.3956   0.00   0.00   0.00
 85344.73100  -0.631   7.2504   7.3956   0.00   0.00   0.00
 85987.70400  -0.540   7.4265   7.5706   0.00   0.00   0.00
 85987.70400  -1.010   7.4265   7.5706   0.00   0.00   0.00
 86042.46800  -0.290   7.4311   7.5752   0.00   0.00   0.00
 86042.46800  -0.500   7.4311   7.5752   0.00   0.00   0.00
 86042.46800  -0.620   7.4311   7.5752   0.00   0.00   0.00
 86042.46800  -1.530   7.4311   7.5752   0.00   0.00   0.00
 86042.46800  -1.570   7.4311   7.5752   0.00   0.00   0.00
 86042.46800  -1.760   7.4311   7.5752   0.00   0.00   0.00
 86042.46800  -2.210   7.4311   7.5752   0.00   0.00   0.00
 86042.46800  -2.900   7.4311   7.5752   0.00   0.00   0.00
 86135.87700  -2.330   7.4313   7.5752   0.00   0.00   0.00
 87764.07100  -1.405   7.3677   7.5089   0.00   0.00   0.00
 87764.07100  -1.493   7.3677   7.5089   0.00   0.00   0.00
 87764.07100  -1.521   7.3677   7.5089   0.00   0.00   0.00
 87764.07100  -1.638   7.3677   7.5089   0.00   0.00   0.00
 87764.07100  -2.696   7.3677   7.5089   0.00   0.00   0.00
 87764.07100  -2.696   7.3677   7.5089   0.00   0.00   0.00
 87764.07100  -4.512   7.3677   7.5089   0.00   0.00   0.00
 88048.20000   0.330   7.4244   7.5652   0.00   0.00   0.00
 88048.20000  -0.940   7.4244   7.5652   0.00   0.00   0.00
 88048.20000  -1.140   7.4244   7.5652   0.00   0.00   0.00
 88048.20000  -2.270   7.4244   7.5652   0.00   0.00   0.00
 88049.20800  -0.240   7.4244   7.5652   0.00   0.00   0.00
 88049.20800  -0.370   7.4244   7.5652   0.00   0.00   0.00
 88049.20800  -0.900   7.4244   7.5652   0.00   0.00   0.00
 88050.37200   0.000   7.4244   7.5652   0.00   0.00   0.00
 88113.97600  -1.008   7.3648   7.5055   0.00   0.00   0.00
 88113.97600  -1.169   7.3648   7.5055   0.00   0.00   0.00
 88113.97600  -1.340   7.3648   7.5055   0.00   0.00   0.00
 88113.97600  -2.071   7.3648   7.5055   0.00   0.00   0.00
 88113.97600  -2.072   7.3648   7.5055   0.00   0.00   0.00
 88113.97600  -3.621   7.3648   7.5055   0.00   0.00   0.00
 88302.66400  -2.110   7.3651   7.5055   0.00   0.00   0.00
 88687.42000   0.567   6.9298   7.0695   0.00   0.00   0.00
 88689.25400   0.560   6.9298   7.0695   0.00   0.00   0.00
 88715.81200  -0.840   7.2631   7.4028   0.00   0.00   0.00
 88791.06200   0.344   6.9298   7.0694   0.00   0.00   0.00
 88841.65800  -0.134   6.9298   7.0693   0.00   0.00   0.00
 88842.70700  -0.140   6.9298   7.0693   0.00   0.00   0.00
 88854.39400  -0.560   7.4311   7.5706   0.00   0.00   0.00
 88854.39400  -1.850   7.4311   7.5706   0.00   0.00   0.00
 88854.39400  -4.230   7.4311   7.5706   0.00   0.00   0.00
 88954.01100  -2.030   7.4313   7.5706   0.00   0.00   0.00
 89414.34100  -0.730   6.5879   6.7266   0.00   0.00   0.00
 89625.96400  -0.250   6.5879   6.7262   0.00   0.00   0.00
 89700.54400  -0.617   7.2625   7.4007   0.00   0.00   0.00
 89701.55700  -1.860   7.2625   7.4007   0.00   0.00   0.00
 89704.05200  -0.740   7.2625   7.4007   0.00   0.00   0.00
 89704.05200  -2.350   7.2625   7.4007   0.00   0.00   0.00
 90084.43900  -0.955   7.2631   7.4007   0.00   0.00   0.00
 90352.87400   0.250   7.4265   7.5637   0.00   0.00   0.00
 90352.87400  -0.190   7.4265   7.5637   0.00   0.00   0.00
 90352.87400  -0.370   7.4265   7.5637   0.00   0.00   0.00
 90352.87400  -0.490   7.4265   7.5637   0.00   0.00   0.00
 90352.87400  -0.670   7.4265   7.5637   0.00   0.00   0.00
 90352.87400  -1.670   7.4265   7.5637   0.00   0.00   0.00
 91500.77900  -1.260   7.3576   7.4931   0.00   0.00   0.00
 91500.77900  -1.730   7.3576   7.4931   0.00   0.00   0.00
 92707.72400  -1.078   7.3576   7.4913   0.00   0.00   0.00
 92707.72400  -1.300   7.3576   7.4913   0.00   0.00   0.00
 92707.72400  -1.777   7.3576   7.4913   0.00   0.00   0.00
 93523.37300  -0.250   7.4311   7.5637   0.00   0.00   0.00
 93523.37300  -0.450   7.4311   7.5637   0.00   0.00   0.00
 93523.37300  -0.580   7.4311   7.5637   0.00   0.00   0.00
 93523.37300  -1.490   7.4311   7.5637   0.00   0.00   0.00
 93523.37300  -1.530   7.4311   7.5637   0.00   0.00   0.00
 93523.37300  -1.720   7.4311   7.5637   0.00   0.00   0.00
 93523.37300  -2.250   7.4311   7.5637   0.00   0.00   0.00
 93523.37300  -2.860   7.4311   7.5637   0.00   0.00   0.00
 93633.74000  -2.050   7.4313   7.5637   0.00   0.00   0.00
 93803.03700  -1.030   7.4007   7.5328   0.00   0.00   0.00
 93803.03700  -1.570   7.4007   7.5328   0.00   0.00   0.00
 93803.03700  -1.840   7.4007   7.5328   0.00   0.00   0.00
 94273.88800  -0.520   7.4265   7.5579   0.00   0.00   0.00
 94273.88800  -1.000   7.4265   7.5579   0.00   0.00   0.00
 94965.13800  -0.180   7.4549   7.5854   0.00   0.00   0.00
 94965.13800  -0.710   7.4549   7.5854   0.00   0.00   0.00
 94965.13800  -0.990   7.4549   7.5854   0.00   0.00   0.00
 95618.28800  -1.280   7.3651   7.4948   0.00   0.00   0.00
 96653.64800  -1.041   7.3648   7.4931   0.00   0.00   0.00
 96654.03200  -2.590   7.3648   7.4931   0.00   0.00   0.00
 96879.58700  -1.748   7.3651   7.4931   0.00   0.00   0.00
 97238.48900   0.340   6.9664   7.0938   0.00   0.00   0.00
 97730.80000  -0.500   7.4311   7.5579   0.00   0.00   0.00
 97730.80000  -1.820   7.4311   7.5579   0.00   0.00   0.00
 97851.32800  -1.760   7.4313   7.5579   0.00   0.00   0.00
 97884.66900   0.380   7.4244   7.5510   0.00   0.00   0.00
 97884.66900  -0.900   7.4244   7.5510   0.00   0.00   0.00
 97884.66900  -1.090   7.4244   7.5510   0.00   0.00   0.00
 97884.66900  -2.230   7.4244   7.5510   0.00   0.00   0.00
 97885.91500  -0.210   7.4244   7.5510   0.00   0.00   0.00
 97885.91500  -0.300   7.4244   7.5510   0.00   0.00   0.00
 97885.91500  -0.860   7.4244   7.5510   0.00   0.00   0.00
 97887.35200   0.050   7.4244   7.5510   0.00   0.00   0.00
 99423.72700  -0.450   7.0694   7.1940   0.00   0.00   0.00
 99552.53300  -0.920   7.0695   7.1940   0.00   0.00   0.00
