#  Wav (A)    log gf    E (l, u) (eV)    rad    stark  waals
  1766.38100   0.460   0.0139   7.0331   0.00   0.00   0.00
  1769.13300  -0.210   0.0139   7.0222   0.00   0.00   0.00
  1932.26600   0.301   0.0000   6.4166   0.00   0.00   0.00
  1936.45900   0.602   0.0139   6.4166   0.00   0.00   0.00
  2071.41400  -4.144   0.0000   5.9836   0.00   0.00   0.00
  2071.42900  -5.595   0.0000   5.9836   0.00   0.00   0.00
  2071.43400  -4.128   0.0000   5.9836   0.00   0.00   0.00
  2071.44900  -5.579   0.0000   5.9835   0.00   0.00   0.00
  2071.45400  -4.111   0.0000   5.9835   0.00   0.00   0.00
  2071.47000  -5.562   0.0000   5.9835   0.00   0.00   0.00
  2071.47500  -4.094   0.0000   5.9835   0.00   0.00   0.00
  2071.49200  -5.545   0.0000   5.9834   0.00   0.00   0.00
  2071.49700  -4.077   0.0000   5.9834   0.00   0.00   0.00
  2071.51400  -5.528   0.0000   5.9833   0.00   0.00   0.00
  2071.52000  -4.060   0.0000   5.9833   0.00   0.00   0.00
  2071.53800  -5.511   0.0000   5.9833   0.00   0.00   0.00
  2071.54300  -4.043   0.0000   5.9833   0.00   0.00   0.00
  2071.56200  -5.494   0.0000   5.9832   0.00   0.00   0.00
  2071.56800  -4.025   0.0000   5.9832   0.00   0.00   0.00
  2071.58800  -5.476   0.0000   5.9831   0.00   0.00   0.00
  2071.59400  -4.007   0.0000   5.9831   0.00   0.00   0.00
  2071.61500  -5.458   0.0000   5.9831   0.00   0.00   0.00
  2071.62100  -3.989   0.0000   5.9830   0.00   0.00   0.00
  2071.64200  -5.440   0.0000   5.9830   0.00   0.00   0.00
  2071.64900  -3.970   0.0000   5.9830   0.00   0.00   0.00
  2071.67100  -5.421   0.0000   5.9829   0.00   0.00   0.00
  2071.67800  -3.951   0.0000   5.9829   0.00   0.00   0.00
  2071.70200  -5.402   0.0000   5.9828   0.00   0.00   0.00
  2071.70900  -3.932   0.0000   5.9828   0.00   0.00   0.00
  2071.73300  -5.383   0.0000   5.9827   0.00   0.00   0.00
  2071.74100  -3.913   0.0000   5.9827   0.00   0.00   0.00
  2071.76600  -5.364   0.0000   5.9826   0.00   0.00   0.00
  2071.77400  -3.894   0.0000   5.9826   0.00   0.00   0.00
  2071.80100  -5.345   0.0000   5.9825   0.00   0.00   0.00
  2071.80900  -3.874   0.0000   5.9825   0.00   0.00   0.00
  2071.83800  -5.325   0.0000   5.9824   0.00   0.00   0.00
  2071.84600  -3.853   0.0000   5.9824   0.00   0.00   0.00
  2071.87600  -5.304   0.0000   5.9823   0.00   0.00   0.00
  2071.88500  -3.833   0.0000   5.9823   0.00   0.00   0.00
  2071.91600  -5.284   0.0000   5.9822   0.00   0.00   0.00
  2071.92500  -3.812   0.0000   5.9822   0.00   0.00   0.00
  2071.95800  -5.263   0.0000   5.9821   0.00   0.00   0.00
  2071.96800  -3.791   0.0000   5.9820   0.00   0.00   0.00
  2072.00200  -5.242   0.0000   5.9819   0.00   0.00   0.00
  2072.01300  -3.769   0.0000   5.9819   0.00   0.00   0.00
  2072.04900  -5.220   0.0000   5.9818   0.00   0.00   0.00
  2072.06000  -3.747   0.0000   5.9818   0.00   0.00   0.00
  2072.09800  -5.198   0.0000   5.9817   0.00   0.00   0.00
  2072.10900  -3.725   0.0000   5.9816   0.00   0.00   0.00
  2072.14900  -5.176   0.0000   5.9815   0.00   0.00   0.00
  2072.16100  -3.703   0.0000   5.9815   0.00   0.00   0.00
  2072.20400  -5.154   0.0000   5.9814   0.00   0.00   0.00
  2072.21700  -3.679   0.0000   5.9813   0.00   0.00   0.00
  2072.26100  -5.130   0.0000   5.9812   0.00   0.00   0.00
  2072.27500  -3.656   0.0000   5.9812   0.00   0.00   0.00
  2072.32200  -5.107   0.0000   5.9810   0.00   0.00   0.00
  2072.33600  -3.632   0.0000   5.9810   0.00   0.00   0.00
  2072.38600  -5.083   0.0000   5.9808   0.00   0.00   0.00
  2072.40100  -3.608   0.0000   5.9808   0.00   0.00   0.00
  2072.45400  -5.059   0.0000   5.9806   0.00   0.00   0.00
  2072.47000  -3.583   0.0000   5.9806   0.00   0.00   0.00
  2072.52600  -5.034   0.0000   5.9804   0.00   0.00   0.00
  2072.54400  -3.558   0.0000   5.9804   0.00   0.00   0.00
  2072.60300  -5.009   0.0000   5.9802   0.00   0.00   0.00
  2072.62100  -3.532   0.0000   5.9802   0.00   0.00   0.00
  2072.68500  -4.983   0.0000   5.9800   0.00   0.00   0.00
  2072.70400  -3.506   0.0000   5.9799   0.00   0.00   0.00
  2072.77100  -4.956   0.0000   5.9797   0.00   0.00   0.00
  2072.79200  -3.479   0.0000   5.9797   0.00   0.00   0.00
  2072.86400  -4.930   0.0000   5.9795   0.00   0.00   0.00
  2072.88600  -3.451   0.0000   5.9794   0.00   0.00   0.00
  2072.96200  -4.902   0.0000   5.9792   0.00   0.00   0.00
  2072.98600  -3.423   0.0000   5.9791   0.00   0.00   0.00
  2073.06800  -4.874   0.0000   5.9789   0.00   0.00   0.00
  2073.09300  -3.395   0.0000   5.9788   0.00   0.00   0.00
  2073.18000  -4.846   0.0000   5.9785   0.00   0.00   0.00
  2073.20700  -3.365   0.0000   5.9785   0.00   0.00   0.00
  2073.30100  -4.816   0.0000   5.9782   0.00   0.00   0.00
  2073.33000  -3.335   0.0000   5.9781   0.00   0.00   0.00
  2073.43100  -4.786   0.0000   5.9778   0.00   0.00   0.00
  2073.46200  -3.305   0.0000   5.9777   0.00   0.00   0.00
  2073.57100  -4.756   0.0000   5.9774   0.00   0.00   0.00
  2073.60400  -3.273   0.0000   5.9773   0.00   0.00   0.00
  2073.72100  -4.724   0.0000   5.9770   0.00   0.00   0.00
  2073.75700  -3.241   0.0000   5.9769   0.00   0.00   0.00
  2073.88400  -4.692   0.0000   5.9765   0.00   0.00   0.00
  2073.92200  -3.208   0.0000   5.9764   0.00   0.00   0.00
  2074.05900  -4.659   0.0000   5.9760   0.00   0.00   0.00
  2074.10100  -3.174   0.0000   5.9759   0.00   0.00   0.00
  2074.25000  -4.625   0.0000   5.9755   0.00   0.00   0.00
  2074.29500  -3.140   0.0000   5.9753   0.00   0.00   0.00
  2074.45700  -4.591   0.0000   5.9749   0.00   0.00   0.00
  2074.50600  -3.104   0.0000   5.9747   0.00   0.00   0.00
  2074.68200  -4.555   0.0000   5.9742   0.00   0.00   0.00
  2074.73600  -3.067   0.0000   5.9741   0.00   0.00   0.00
  2074.92900  -4.518   0.0000   5.9735   0.00   0.00   0.00
  2074.98700  -3.029   0.0000   5.9733   0.00   0.00   0.00
  2075.19800  -4.480   0.0000   5.9727   0.00   0.00   0.00
  2075.26200  -2.990   0.0000   5.9725   0.00   0.00   0.00
  2075.49400  -4.441   0.0000   5.9719   0.00   0.00   0.00
  2075.56500  -2.950   0.0000   5.9717   0.00   0.00   0.00
  2075.82000  -4.401   0.0000   5.9709   0.00   0.00   0.00
  2075.89800  -2.909   0.0000   5.9707   0.00   0.00   0.00
  2076.17900  -4.360   0.0000   5.9699   0.00   0.00   0.00
  2076.23600  -3.890   0.0139   5.9836   0.00   0.00   0.00
  2076.23600  -4.837   0.0139   5.9836   0.00   0.00   0.00
  2076.25100  -5.294   0.0139   5.9836   0.00   0.00   0.00
  2076.25500  -3.873   0.0139   5.9836   0.00   0.00   0.00
  2076.25500  -4.821   0.0139   5.9836   0.00   0.00   0.00
  2076.26600  -2.866   0.0000   5.9697   0.00   0.00   0.00
  2076.27100  -5.278   0.0139   5.9835   0.00   0.00   0.00
  2076.27600  -3.857   0.0139   5.9835   0.00   0.00   0.00
  2076.27600  -4.804   0.0139   5.9835   0.00   0.00   0.00
  2076.29200  -5.261   0.0139   5.9835   0.00   0.00   0.00
  2076.29700  -3.840   0.0139   5.9835   0.00   0.00   0.00
  2076.29700  -4.787   0.0139   5.9835   0.00   0.00   0.00
  2076.31400  -5.244   0.0139   5.9834   0.00   0.00   0.00
  2076.31900  -3.823   0.0139   5.9834   0.00   0.00   0.00
  2076.31900  -4.770   0.0139   5.9834   0.00   0.00   0.00
  2076.33600  -5.227   0.0139   5.9833   0.00   0.00   0.00
  2076.34200  -3.806   0.0139   5.9833   0.00   0.00   0.00
  2076.34200  -4.753   0.0139   5.9833   0.00   0.00   0.00
  2076.36000  -5.210   0.0139   5.9833   0.00   0.00   0.00
  2076.36600  -3.788   0.0139   5.9833   0.00   0.00   0.00
  2076.36600  -4.735   0.0139   5.9833   0.00   0.00   0.00
  2076.38500  -5.193   0.0139   5.9832   0.00   0.00   0.00
  2076.39000  -3.770   0.0139   5.9832   0.00   0.00   0.00
  2076.39000  -4.718   0.0139   5.9832   0.00   0.00   0.00
  2076.41000  -5.175   0.0139   5.9831   0.00   0.00   0.00
  2076.41600  -3.752   0.0139   5.9831   0.00   0.00   0.00
  2076.41600  -4.700   0.0139   5.9831   0.00   0.00   0.00
  2076.43700  -5.157   0.0139   5.9831   0.00   0.00   0.00
  2076.44300  -3.734   0.0139   5.9830   0.00   0.00   0.00
  2076.44300  -4.681   0.0139   5.9830   0.00   0.00   0.00
  2076.46500  -5.139   0.0139   5.9830   0.00   0.00   0.00
  2076.47100  -3.716   0.0139   5.9830   0.00   0.00   0.00
  2076.47200  -4.663   0.0139   5.9830   0.00   0.00   0.00
  2076.49400  -5.120   0.0139   5.9829   0.00   0.00   0.00
  2076.50100  -3.697   0.0139   5.9829   0.00   0.00   0.00
  2076.50100  -4.644   0.0139   5.9829   0.00   0.00   0.00
  2076.52500  -5.101   0.0139   5.9828   0.00   0.00   0.00
  2076.53200  -3.678   0.0139   5.9828   0.00   0.00   0.00
  2076.53200  -4.625   0.0139   5.9828   0.00   0.00   0.00
  2076.55600  -5.082   0.0139   5.9827   0.00   0.00   0.00
  2076.56400  -3.659   0.0139   5.9827   0.00   0.00   0.00
  2076.56400  -4.606   0.0139   5.9827   0.00   0.00   0.00
  2076.57800  -4.317   0.0000   5.9688   0.00   0.00   0.00
  2076.59000  -5.063   0.0139   5.9826   0.00   0.00   0.00
  2076.59800  -3.639   0.0139   5.9826   0.00   0.00   0.00
  2076.59800  -4.586   0.0139   5.9826   0.00   0.00   0.00
  2076.62500  -5.043   0.0139   5.9825   0.00   0.00   0.00
  2076.63300  -3.619   0.0139   5.9825   0.00   0.00   0.00
  2076.63300  -4.566   0.0139   5.9825   0.00   0.00   0.00
  2076.66100  -5.024   0.0139   5.9824   0.00   0.00   0.00
  2076.67000  -3.599   0.0139   5.9824   0.00   0.00   0.00
  2076.67000  -4.546   0.0139   5.9824   0.00   0.00   0.00
  2076.67400  -2.822   0.0000   5.9685   0.00   0.00   0.00
  2076.70000  -5.003   0.0139   5.9823   0.00   0.00   0.00
  2076.70800  -3.578   0.0139   5.9823   0.00   0.00   0.00
  2076.70900  -4.526   0.0139   5.9823   0.00   0.00   0.00
  2076.74000  -4.983   0.0139   5.9822   0.00   0.00   0.00
  2076.74900  -3.558   0.0139   5.9822   0.00   0.00   0.00
  2076.74900  -4.505   0.0139   5.9822   0.00   0.00   0.00
  2076.78200  -4.962   0.0139   5.9821   0.00   0.00   0.00
  2076.79200  -3.536   0.0139   5.9820   0.00   0.00   0.00
  2076.79200  -4.484   0.0139   5.9820   0.00   0.00   0.00
  2076.82600  -4.941   0.0139   5.9819   0.00   0.00   0.00
  2076.83700  -3.515   0.0139   5.9819   0.00   0.00   0.00
  2076.83700  -4.462   0.0139   5.9819   0.00   0.00   0.00
  2076.87300  -4.919   0.0139   5.9818   0.00   0.00   0.00
  2076.88400  -3.493   0.0139   5.9818   0.00   0.00   0.00
  2076.88400  -4.440   0.0139   5.9818   0.00   0.00   0.00
  2076.92200  -4.897   0.0139   5.9817   0.00   0.00   0.00
  2076.93400  -3.471   0.0139   5.9816   0.00   0.00   0.00
  2076.93400  -4.418   0.0139   5.9816   0.00   0.00   0.00
  2076.97400  -4.875   0.0139   5.9815   0.00   0.00   0.00
  2076.98600  -3.448   0.0139   5.9815   0.00   0.00   0.00
  2076.98600  -4.395   0.0139   5.9815   0.00   0.00   0.00
  2077.02200  -4.273   0.0000   5.9675   0.00   0.00   0.00
  2077.02900  -4.852   0.0139   5.9814   0.00   0.00   0.00
  2077.04200  -3.425   0.0139   5.9813   0.00   0.00   0.00
  2077.04200  -4.372   0.0139   5.9813   0.00   0.00   0.00
  2077.08700  -4.829   0.0139   5.9812   0.00   0.00   0.00
  2077.10000  -3.401   0.0139   5.9812   0.00   0.00   0.00
  2077.10000  -4.349   0.0139   5.9812   0.00   0.00   0.00
  2077.12900  -2.776   0.0000   5.9672   0.00   0.00   0.00
  2077.14800  -4.806   0.0139   5.9810   0.00   0.00   0.00
  2077.16200  -3.378   0.0139   5.9810   0.00   0.00   0.00
  2077.16200  -4.325   0.0139   5.9810   0.00   0.00   0.00
  2077.21200  -4.782   0.0139   5.9808   0.00   0.00   0.00
  2077.22700  -3.353   0.0139   5.9808   0.00   0.00   0.00
  2077.22800  -4.300   0.0139   5.9808   0.00   0.00   0.00
  2077.28100  -4.758   0.0139   5.9806   0.00   0.00   0.00
  2077.29700  -3.328   0.0139   5.9806   0.00   0.00   0.00
  2077.29700  -4.276   0.0139   5.9806   0.00   0.00   0.00
  2077.35300  -4.733   0.0139   5.9804   0.00   0.00   0.00
  2077.37000  -3.303   0.0139   5.9804   0.00   0.00   0.00
  2077.37000  -4.250   0.0139   5.9804   0.00   0.00   0.00
  2077.43000  -4.708   0.0139   5.9802   0.00   0.00   0.00
  2077.44800  -3.277   0.0139   5.9802   0.00   0.00   0.00
  2077.44800  -4.225   0.0139   5.9802   0.00   0.00   0.00
  2077.51200  -4.682   0.0139   5.9800   0.00   0.00   0.00
  2077.51800  -4.227   0.0000   5.9661   0.00   0.00   0.00
  2077.53100  -3.251   0.0139   5.9799   0.00   0.00   0.00
  2077.53100  -4.198   0.0139   5.9799   0.00   0.00   0.00
  2077.59900  -4.655   0.0139   5.9797   0.00   0.00   0.00
  2077.62000  -3.224   0.0139   5.9797   0.00   0.00   0.00
  2077.62000  -4.171   0.0139   5.9797   0.00   0.00   0.00
  2077.63700  -2.729   0.0000   5.9657   0.00   0.00   0.00
  2077.69200  -4.629   0.0139   5.9795   0.00   0.00   0.00
  2077.71400  -3.197   0.0139   5.9794   0.00   0.00   0.00
  2077.71400  -4.144   0.0139   5.9794   0.00   0.00   0.00
  2077.79100  -4.601   0.0139   5.9792   0.00   0.00   0.00
  2077.81400  -3.169   0.0139   5.9791   0.00   0.00   0.00
  2077.81500  -4.116   0.0139   5.9791   0.00   0.00   0.00
  2077.89700  -4.573   0.0139   5.9789   0.00   0.00   0.00
  2077.92200  -3.140   0.0139   5.9788   0.00   0.00   0.00
  2077.92200  -4.087   0.0139   5.9788   0.00   0.00   0.00
  2078.01000  -4.545   0.0139   5.9785   0.00   0.00   0.00
  2078.03700  -3.111   0.0139   5.9785   0.00   0.00   0.00
  2078.03700  -4.058   0.0139   5.9785   0.00   0.00   0.00
  2078.07400  -4.180   0.0000   5.9645   0.00   0.00   0.00
  2078.13200  -4.515   0.0139   5.9782   0.00   0.00   0.00
  2078.16000  -3.081   0.0139   5.9781   0.00   0.00   0.00
  2078.16100  -4.028   0.0139   5.9781   0.00   0.00   0.00
  2078.20800  -2.680   0.0000   5.9641   0.00   0.00   0.00
  2078.26200  -4.485   0.0139   5.9778   0.00   0.00   0.00
  2078.29300  -3.050   0.0139   5.9777   0.00   0.00   0.00
  2078.29300  -3.997   0.0139   5.9777   0.00   0.00   0.00
  2078.40200  -4.455   0.0139   5.9774   0.00   0.00   0.00
  2078.43600  -3.019   0.0139   5.9773   0.00   0.00   0.00
  2078.43600  -3.966   0.0139   5.9773   0.00   0.00   0.00
  2078.55400  -4.423   0.0139   5.9770   0.00   0.00   0.00
  2078.58900  -2.987   0.0139   5.9769   0.00   0.00   0.00
  2078.59000  -3.934   0.0139   5.9769   0.00   0.00   0.00
  2078.70100  -4.131   0.0000   5.9627   0.00   0.00   0.00
  2078.71700  -4.391   0.0139   5.9765   0.00   0.00   0.00
  2078.75500  -2.954   0.0139   5.9764   0.00   0.00   0.00
  2078.75600  -3.901   0.0139   5.9764   0.00   0.00   0.00
  2078.85100  -2.629   0.0000   5.9622   0.00   0.00   0.00
  2078.89300  -4.358   0.0139   5.9760   0.00   0.00   0.00
  2078.93500  -2.920   0.0139   5.9759   0.00   0.00   0.00
  2078.93500  -3.867   0.0139   5.9759   0.00   0.00   0.00
  2079.08500  -4.324   0.0139   5.9755   0.00   0.00   0.00
  2079.13000  -2.885   0.0139   5.9753   0.00   0.00   0.00
  2079.13000  -3.832   0.0139   5.9753   0.00   0.00   0.00
  2079.29300  -4.289   0.0139   5.9749   0.00   0.00   0.00
  2079.34200  -2.849   0.0139   5.9747   0.00   0.00   0.00
  2079.34200  -3.797   0.0139   5.9747   0.00   0.00   0.00
  2079.41100  -4.080   0.0000   5.9606   0.00   0.00   0.00
  2079.51900  -4.254   0.0139   5.9742   0.00   0.00   0.00
  2079.57300  -2.813   0.0139   5.9741   0.00   0.00   0.00
  2079.57300  -3.760   0.0139   5.9741   0.00   0.00   0.00
  2079.58100  -2.576   0.0000   5.9601   0.00   0.00   0.00
  2079.76700  -4.217   0.0139   5.9735   0.00   0.00   0.00
  2079.82500  -2.775   0.0139   5.9733   0.00   0.00   0.00
  2079.82600  -3.722   0.0139   5.9733   0.00   0.00   0.00
  2080.03700  -4.179   0.0139   5.9727   0.00   0.00   0.00
  2080.10100  -2.736   0.0139   5.9725   0.00   0.00   0.00
  2080.10200  -3.683   0.0139   5.9725   0.00   0.00   0.00
  2080.21900  -4.027   0.0000   5.9583   0.00   0.00   0.00
  2080.33400  -4.140   0.0139   5.9719   0.00   0.00   0.00
  2080.40500  -2.696   0.0139   5.9717   0.00   0.00   0.00
  2080.40600  -3.643   0.0139   5.9717   0.00   0.00   0.00
  2080.41300  -2.520   0.0000   5.9578   0.00   0.00   0.00
  2080.66200  -4.100   0.0139   5.9709   0.00   0.00   0.00
  2080.73900  -2.654   0.0139   5.9707   0.00   0.00   0.00
  2080.74000  -3.602   0.0139   5.9707   0.00   0.00   0.00
  2081.02300  -4.059   0.0139   5.9699   0.00   0.00   0.00
  2081.10900  -2.612   0.0139   5.9697   0.00   0.00   0.00
  2081.11000  -3.559   0.0139   5.9697   0.00   0.00   0.00
  2081.14500  -3.971   0.0000   5.9557   0.00   0.00   0.00
  2081.36700  -2.462   0.0000   5.9550   0.00   0.00   0.00
  2081.42400  -4.016   0.0139   5.9688   0.00   0.00   0.00
  2081.51900  -2.568   0.0139   5.9685   0.00   0.00   0.00
  2081.52000  -3.515   0.0139   5.9685   0.00   0.00   0.00
  2081.87000  -3.972   0.0139   5.9675   0.00   0.00   0.00
  2081.97600  -2.522   0.0139   5.9672   0.00   0.00   0.00
  2081.97700  -3.469   0.0139   5.9672   0.00   0.00   0.00
  2082.21200  -3.913   0.0000   5.9526   0.00   0.00   0.00
  2082.36800  -3.926   0.0139   5.9661   0.00   0.00   0.00
  2082.46900  -2.402   0.0000   5.9519   0.00   0.00   0.00
  2082.48700  -2.474   0.0139   5.9657   0.00   0.00   0.00
  2082.48800  -3.422   0.0139   5.9657   0.00   0.00   0.00
  2082.92700  -3.879   0.0139   5.9645   0.00   0.00   0.00
  2083.06000  -2.425   0.0139   5.9641   0.00   0.00   0.00
  2083.06100  -3.373   0.0139   5.9641   0.00   0.00   0.00
  2083.45200  -3.853   0.0000   5.9491   0.00   0.00   0.00
  2083.55700  -3.830   0.0139   5.9627   0.00   0.00   0.00
  2083.70700  -2.374   0.0139   5.9622   0.00   0.00   0.00
  2083.70800  -3.321   0.0139   5.9622   0.00   0.00   0.00
  2083.75000  -2.338   0.0000   5.9482   0.00   0.00   0.00
  2084.27000  -3.779   0.0139   5.9606   0.00   0.00   0.00
  2084.44000  -2.321   0.0139   5.9601   0.00   0.00   0.00
  2084.44100  -3.268   0.0139   5.9601   0.00   0.00   0.00
  2084.90300  -3.789   0.0000   5.9449   0.00   0.00   0.00
  2085.08200  -3.726   0.0139   5.9583   0.00   0.00   0.00
  2085.25100  -2.271   0.0000   5.9439   0.00   0.00   0.00
  2085.27500  -2.266   0.0139   5.9578   0.00   0.00   0.00
  2085.27700  -3.213   0.0139   5.9578   0.00   0.00   0.00
  2086.01200  -3.670   0.0139   5.9557   0.00   0.00   0.00
  2086.23400  -2.208   0.0139   5.9550   0.00   0.00   0.00
  2086.23600  -3.155   0.0139   5.9550   0.00   0.00   0.00
  2086.61600  -3.722   0.0000   5.9400   0.00   0.00   0.00
  2087.02700  -2.201   0.0000   5.9389   0.00   0.00   0.00
  2087.08400  -3.612   0.0139   5.9526   0.00   0.00   0.00
  2087.34000  -2.147   0.0139   5.9519   0.00   0.00   0.00
  2087.34200  -3.094   0.0139   5.9519   0.00   0.00   0.00
  2088.33000  -3.552   0.0139   5.9491   0.00   0.00   0.00
  2088.62700  -2.083   0.0139   5.9482   0.00   0.00   0.00
  2088.62900  -3.031   0.0139   5.9482   0.00   0.00   0.00
  2088.65900  -3.652   0.0000   5.9342   0.00   0.00   0.00
  2089.14900  -2.126   0.0000   5.9329   0.00   0.00   0.00
  2089.78800  -3.488   0.0139   5.9449   0.00   0.00   0.00
  2090.13500  -2.017   0.0139   5.9439   0.00   0.00   0.00
  2090.13800  -2.964   0.0139   5.9439   0.00   0.00   0.00
  2091.12300  -3.577   0.0000   5.9272   0.00   0.00   0.00
  2091.50900  -3.421   0.0139   5.9400   0.00   0.00   0.00
  2091.71100  -2.047   0.0000   5.9256   0.00   0.00   0.00
  2091.91900  -1.946   0.0139   5.9389   0.00   0.00   0.00
  2091.92200  -2.893   0.0139   5.9389   0.00   0.00   0.00
  2093.56200  -3.351   0.0139   5.9342   0.00   0.00   0.00
  2094.04900  -1.872   0.0139   5.9329   0.00   0.00   0.00
  2094.05300  -2.819   0.0139   5.9329   0.00   0.00   0.00
  2094.13200  -3.498   0.0000   5.9187   0.00   0.00   0.00
  2094.84700  -1.963   0.0000   5.9167   0.00   0.00   0.00
  2096.03700  -3.276   0.0139   5.9272   0.00   0.00   0.00
  2096.62300  -1.793   0.0139   5.9256   0.00   0.00   0.00
  2096.62800  -2.740   0.0139   5.9256   0.00   0.00   0.00
  2097.86000  -3.414   0.0000   5.9082   0.00   0.00   0.00
  2098.74100  -1.873   0.0000   5.9057   0.00   0.00   0.00
  2099.06000  -3.197   0.0139   5.9187   0.00   0.00   0.00
  2099.77300  -1.709   0.0139   5.9167   0.00   0.00   0.00
  2099.77900  -2.656   0.0139   5.9167   0.00   0.00   0.00
  2102.55800  -3.324   0.0000   5.8950   0.00   0.00   0.00
  2102.80600  -3.113   0.0139   5.9082   0.00   0.00   0.00
  2103.65800  -1.777   0.0000   5.8919   0.00   0.00   0.00
  2103.68400  -1.619   0.0139   5.9058   0.00   0.00   0.00
  2103.69100  -2.566   0.0139   5.9057   0.00   0.00   0.00
  2107.52600  -3.023   0.0139   5.8950   0.00   0.00   0.00
  2108.59600  -3.228   0.0000   5.8781   0.00   0.00   0.00
  2108.62200  -1.522   0.0139   5.8920   0.00   0.00   0.00
  2108.63100  -2.469   0.0139   5.8919   0.00   0.00   0.00
  2109.99100  -1.672   0.0000   5.8743   0.00   0.00   0.00
  2113.59300  -2.927   0.0139   5.8781   0.00   0.00   0.00
  2114.98200  -1.418   0.0139   5.8743   0.00   0.00   0.00
  2114.99400  -2.365   0.0139   5.8743   0.00   0.00   0.00
  2116.54200  -3.123   0.0000   5.8561   0.00   0.00   0.00
  2118.34100  -1.562   0.0000   5.8511   0.00   0.00   0.00
  2121.57600  -2.822   0.0139   5.8561   0.00   0.00   0.00
  2123.36200  -1.302   0.0139   5.8512   0.00   0.00   0.00
  2123.38400  -2.262   0.0139   5.8511   0.00   0.00   0.00
  2127.30200  -3.010   0.0000   5.8265   0.00   0.00   0.00
  2129.66300  -1.390   0.0000   5.8200   0.00   0.00   0.00
  2132.38800  -2.709   0.0139   5.8265   0.00   0.00   0.00
  2134.73300  -1.130   0.0139   5.8201   0.00   0.00   0.00
  2134.76000  -2.090   0.0139   5.8200   0.00   0.00   0.00
  2142.40200  -2.886   0.0000   5.7854   0.00   0.00   0.00
  2145.55500  -1.190   0.0000   5.7769   0.00   0.00   0.00
  2147.56000  -2.585   0.0139   5.7854   0.00   0.00   0.00
  2150.69900  -0.930   0.0139   5.7770   0.00   0.00   0.00
  2150.72800  -1.890   0.0139   5.7769   0.00   0.00   0.00
  2164.57700  -2.749   0.0000   5.7261   0.00   0.00   0.00
  2168.82600  -1.070   0.0000   5.7149   0.00   0.00   0.00
  2169.84300  -2.448   0.0139   5.7261   0.00   0.00   0.00
  2174.07000  -0.810   0.0139   5.7150   0.00   0.00   0.00
  2174.11300  -1.770   0.0139   5.7149   0.00   0.00   0.00
  2199.18300  -2.598   0.0000   5.6360   0.00   0.00   0.00
  2204.61900  -2.298   0.0139   5.6360   0.00   0.00   0.00
  2204.66800  -0.882   0.0000   5.6220   0.00   0.00   0.00
  2210.06000  -0.622   0.0139   5.6222   0.00   0.00   0.00
  2210.13000  -1.582   0.0139   5.6220   0.00   0.00   0.00
  2258.00800  -2.240   0.0000   5.4892   0.00   0.00   0.00
  2263.46300  -0.711   0.0000   5.4760   0.00   0.00   0.00
  2263.73800  -1.940   0.0139   5.4892   0.00   0.00   0.00
  2269.09500  -0.451   0.0139   5.4763   0.00   0.00   0.00
  2269.22100  -1.411   0.0139   5.4760   0.00   0.00   0.00
  2311.03600  -1.290   3.5981   8.9614   0.00   0.00   0.00
  2312.49100  -0.580   3.5981   8.9580   0.00   0.00   0.00
  2313.52500  -0.590   3.6039   8.9614   0.00   0.00   0.00
  2314.98400  -1.080   3.6039   8.9580   0.00   0.00   0.00
  2317.48100  -0.540   3.6039   8.9522   0.00   0.00   0.00
  2319.05600  -0.550   3.6133   8.9580   0.00   0.00   0.00
  2321.56200  -0.180   3.6133   8.9522   0.00   0.00   0.00
  2367.05300  -0.623   0.0000   5.2364   0.00   0.00   0.00
  2367.61100  -0.200   3.5981   8.8332   0.00   0.00   0.00
  2368.11200  -0.200   3.5981   8.8321   0.00   0.00   0.00
  2369.30500   0.200   3.6039   8.8353   0.00   0.00   0.00
  2370.22500  -0.090   3.6039   8.8332   0.00   0.00   0.00
  2370.72600  -0.900   3.6039   8.8321   0.00   0.00   0.00
  2372.07000  -2.100   0.0000   5.2253   0.00   0.00   0.00
  2372.11400   0.480   3.6133   8.8385   0.00   0.00   0.00
  2373.12200  -0.363   0.0139   5.2369   0.00   0.00   0.00
  2373.35100  -1.323   0.0139   5.2364   0.00   0.00   0.00
  2373.57000  -0.170   3.6133   8.8353   0.00   0.00   0.00
  2374.49400  -1.120   3.6133   8.8332   0.00   0.00   0.00
  2378.39500  -1.800   0.0139   5.2253   0.00   0.00   0.00
  2567.98300  -1.060   0.0000   4.8267   0.00   0.00  -6.99
  2575.09400  -0.800   0.0139   4.8272   0.00   0.00  -6.99
  2575.39700  -1.760   0.0139   4.8267   0.00   0.00  -6.99
  2652.47500  -1.550   0.0000   4.6729   0.00   0.00   0.00
  2660.38600  -1.250   0.0139   4.6729   0.00   0.00   0.00
  3050.07200  -0.570   3.6039   7.6677   0.00   0.00   0.00
  3054.67900  -0.600   3.5981   7.6558   0.00   0.00   0.00
  3057.14400  -0.200   3.6133   7.6677   0.00   0.00   0.00
  3059.03000  -1.100   3.6039   7.6558   0.00   0.00   0.00
  3059.92400  -1.290   3.5981   7.6488   0.00   0.00   0.00
  3064.29000  -0.600   3.6039   7.6488   0.00   0.00   0.00
  3066.14400  -0.570   3.6133   7.6558   0.00   0.00   0.00
  3082.15300  -0.447   0.0000   4.0215   0.00   0.00  -7.38
  3092.71000  -0.187   0.0139   4.0217   0.00   0.00  -7.38
  3092.83900  -1.147   0.0139   4.0215   0.00   0.00  -7.38
  3944.00600  -0.623   0.0000   3.1428   0.00   0.00  -7.32
  3961.52000  -0.323   0.0139   3.1428   0.00   0.00  -7.32
  4592.22700  -3.291   3.1428   5.8419   0.00   0.00   0.00
  4592.29600  -3.592   3.1428   5.8419   0.00   0.00   0.00
  4652.41400  -3.125   3.1428   5.8070   0.00   0.00   0.00
  4652.51200  -3.426   3.1428   5.8069   0.00   0.00   0.00
  4740.26500  -2.930   3.1428   5.7576   0.00   0.00   0.00
  4740.41200  -3.231   3.1428   5.7575   0.00   0.00   0.00
  4876.58400  -2.693   3.1428   5.6845   0.00   0.00   0.00
  4876.81900  -2.994   3.1428   5.6844   0.00   0.00   0.00
  5107.52000  -2.395   3.1428   5.5696   0.00   0.00   0.00
  5107.94300  -2.697   3.1428   5.5694   0.00   0.00   0.00
  5557.06300  -2.110   3.1428   5.3733   0.00   0.00   0.00
  5557.94800  -2.410   3.1428   5.3729   0.00   0.00   0.00
  6631.21800  -1.700   4.0215   5.8907   0.00   0.00   0.00
  6631.80900  -1.550   4.0217   5.8907   0.00   0.00   0.00
  6631.80900  -2.850   4.0217   5.8907   0.00   0.00   0.00
  6696.02300  -1.347   3.1428   4.9939   0.00   0.00   0.00
  6696.18500  -1.576   4.0215   5.8726   0.00   0.00   0.00
  6696.78800  -1.421   4.0217   5.8726   0.00   0.00   0.00
  6696.78800  -2.722   4.0217   5.8726   0.00   0.00   0.00
  6698.67300  -1.647   3.1428   4.9931   0.00   0.00   0.00
  6783.63800  -1.440   4.0215   5.8487   0.00   0.00   0.00
  6784.25600  -1.285   4.0217   5.8487   0.00   0.00   0.00
  6784.25600  -2.586   4.0217   5.8487   0.00   0.00   0.00
  6809.73500  -4.772   4.0217   5.8419   0.00   0.00   0.00
  6905.64600  -1.287   4.0215   5.8165   0.00   0.00   0.00
  6906.28700  -1.132   4.0217   5.8165   0.00   0.00   0.00
  6906.28700  -2.433   4.0217   5.8165   0.00   0.00   0.00
  6928.69700  -2.385   4.0853   5.8743   0.00   0.00   0.00
  6936.18600  -2.130   4.0873   5.8743   0.00   0.00   0.00
  6936.31100  -3.085   4.0873   5.8743   0.00   0.00   0.00
  6942.49600  -4.822   4.0215   5.8069   0.00   0.00   0.00
  6942.92500  -4.567   4.0217   5.8070   0.00   0.00   0.00
  6999.82900  -2.954   4.0853   5.8561   0.00   0.00   0.00
  7007.60100  -2.653   4.0873   5.8561   0.00   0.00   0.00
  7019.54500  -2.288   4.0853   5.8511   0.00   0.00   0.00
  7027.12000  -2.033   4.0873   5.8512   0.00   0.00   0.00
  7027.36000  -2.987   4.0873   5.8511   0.00   0.00   0.00
  7083.96900  -1.111   4.0215   5.7713   0.00   0.00   0.00
  7084.64300  -0.956   4.0217   5.7713   0.00   0.00   0.00
  7084.64300  -2.257   4.0217   5.7713   0.00   0.00   0.00
  7118.89900  -2.804   4.0853   5.8265   0.00   0.00   0.00
  7126.93800  -2.503   4.0873   5.8265   0.00   0.00   0.00
  7140.05400  -4.579   4.0215   5.7575   0.00   0.00   0.00
  7140.40600  -4.324   4.0217   5.7576   0.00   0.00   0.00
  7145.39700  -2.173   4.0853   5.8200   0.00   0.00   0.00
  7153.19900  -1.918   4.0873   5.8201   0.00   0.00   0.00
  7153.49600  -2.873   4.0873   5.8200   0.00   0.00   0.00
  7290.83100  -2.631   4.0853   5.7854   0.00   0.00   0.00
  7299.26300  -2.331   4.0873   5.7854   0.00   0.00   0.00
  7327.47000  -2.056   4.0853   5.7769   0.00   0.00   0.00
  7335.64800  -1.801   4.0873   5.7770   0.00   0.00   0.00
  7335.98700  -2.756   4.0873   5.7769   0.00   0.00   0.00
  7361.56800  -0.903   4.0215   5.7053   0.00   0.00   0.00
  7362.29600  -0.748   4.0217   5.7053   0.00   0.00   0.00
  7362.29600  -2.049   4.0217   5.7053   0.00   0.00   0.00
  7453.53900  -4.980   4.0215   5.6845   0.00   0.00   0.00
  7454.08800  -4.281   4.0215   5.6844   0.00   0.00   0.00
  7454.28500  -4.025   4.0217   5.6845   0.00   0.00   0.00
  7554.16200  -2.428   4.0853   5.7261   0.00   0.00   0.00
  7563.21400  -2.128   4.0873   5.7261   0.00   0.00   0.00
  7606.16000  -1.958   4.0853   5.7149   0.00   0.00   0.00
  7614.82000  -1.703   4.0873   5.7150   0.00   0.00   0.00
  7615.33700  -2.657   4.0873   5.7149   0.00   0.00   0.00
  7835.30900  -0.649   4.0215   5.6035   0.00   0.00   0.00
  7836.13400  -0.494   4.0217   5.6035   0.00   0.00   0.00
  7836.13400  -1.795   4.0217   5.6035   0.00   0.00   0.00
  7993.05000  -2.180   4.0853   5.6360   0.00   0.00   0.00
  8003.18500  -1.879   4.0873   5.6360   0.00   0.00   0.00
  8006.87100  -4.586   4.0215   5.5696   0.00   0.00   0.00
  8007.73200  -3.632   4.0217   5.5696   0.00   0.00   0.00
  8007.91000  -3.887   4.0215   5.5694   0.00   0.00   0.00
  8065.96800  -1.936   4.0853   5.6220   0.00   0.00   0.00
  8075.35300  -1.681   4.0873   5.6222   0.00   0.00   0.00
  8076.28900  -2.636   4.0873   5.6220   0.00   0.00   0.00
  8772.86500  -0.316   4.0215   5.4344   0.00   0.00  -6.67
  8773.89600  -0.161   4.0217   5.4344   0.00   0.00  -6.67
  8773.89900  -1.462   4.0217   5.4344   0.00   0.00  -6.67
  8828.90900  -1.890   4.0853   5.4892   0.00   0.00   0.00
  8841.27700  -1.590   4.0873   5.4892   0.00   0.00   0.00
  8912.90000  -2.348   4.0853   5.4760   0.00   0.00   0.00
  8923.55500  -2.093   4.0873   5.4763   0.00   0.00   0.00
  8925.50400  -3.048   4.0873   5.4760   0.00   0.00   0.00
  9169.74000  -4.042   4.0215   5.3733   0.00   0.00   0.00
  9170.87000  -3.088   4.0217   5.3733   0.00   0.00   0.00
  9172.15000  -3.343   4.0215   5.3729   0.00   0.00   0.00
 10603.60500  -2.959   4.6729   5.8419   0.00   0.00   0.00
 10603.97300  -3.260   4.6729   5.8419   0.00   0.00   0.00
 10768.36500  -1.505   4.0853   5.2364   0.00   0.00   0.00
 10782.04500  -1.250   4.0873   5.2369   0.00   0.00   0.00
 10786.76800  -2.205   4.0873   5.2364   0.00   0.00   0.00
 10872.97300  -1.400   4.0853   5.2253   0.00   0.00   0.00
 10891.73600  -1.100   4.0873   5.2253   0.00   0.00   0.00
 10930.09700  -2.765   4.6729   5.8070   0.00   0.00   0.00
 10930.63900  -3.066   4.6729   5.8069   0.00   0.00   0.00
 11253.18900   0.276   4.0215   5.1230   0.00   0.00  -6.97
 11254.88100   0.431   4.0217   5.1230   0.00   0.00  -6.97
 11254.89100  -0.870   4.0217   5.1230   0.00   0.00  -6.97
 11427.64900  -2.529   4.6729   5.7576   0.00   0.00   0.00
 11428.50100  -2.830   4.6729   5.7575   0.00   0.00   0.00
 11649.03500  -1.154   4.8267   5.8907   0.00   0.00   0.00
 11655.22200  -0.999   4.8272   5.8907   0.00   0.00   0.00
 11655.22200  -2.300   4.8272   5.8907   0.00   0.00   0.00
 11851.01900  -2.036   4.8267   5.8726   0.00   0.00   0.00
 11857.42300  -1.881   4.8272   5.8726   0.00   0.00   0.00
 11857.42300  -3.182   4.8272   5.8726   0.00   0.00   0.00
 12127.72200  -1.914   4.8267   5.8487   0.00   0.00   0.00
 12134.42800  -1.760   4.8272   5.8487   0.00   0.00   0.00
 12134.42800  -3.061   4.8272   5.8487   0.00   0.00   0.00
 12209.38500  -4.107   4.8267   5.8419   0.00   0.00   0.00
 12209.87300  -3.408   4.8267   5.8419   0.00   0.00   0.00
 12216.18200  -3.153   4.8272   5.8419   0.00   0.00   0.00
 12253.39000  -2.228   4.6729   5.6845   0.00   0.00   0.00
 12254.87600  -2.529   4.6729   5.6844   0.00   0.00   0.00
 12523.28700  -1.783   4.8267   5.8165   0.00   0.00   0.00
 12530.43800  -1.628   4.8272   5.8165   0.00   0.00   0.00
 12530.43800  -2.929   4.8272   5.8165   0.00   0.00   0.00
 12644.27900  -3.939   4.8267   5.8070   0.00   0.00   0.00
 12645.00400  -3.240   4.8267   5.8069   0.00   0.00   0.00
 12651.56900  -2.985   4.8272   5.8070   0.00   0.00   0.00
 12747.65100  -3.171   4.0215   4.9939   0.00   0.00   0.00
 12749.83500  -2.217   4.0217   4.9939   0.00   0.00   0.00
 12757.26000  -2.472   4.0215   4.9931   0.00   0.00   0.00
 13122.32200  -1.642   4.8267   5.7713   0.00   0.00   0.00
 13123.41000   0.270   3.1428   4.0873   0.00   0.00   0.00
 13130.17400  -1.487   4.8272   5.7713   0.00   0.00   0.00
 13130.17400  -2.788   4.8272   5.7713   0.00   0.00   0.00
 13150.75300  -0.030   3.1428   4.0853   0.00   0.00   0.00
 13316.07500  -3.040   4.8267   5.7575   0.00   0.00   0.00
 13323.00300  -2.785   4.8272   5.7576   0.00   0.00   0.00
 13823.91800  -1.815   4.6729   5.5696   0.00   0.00   0.00
 13827.01700  -2.117   4.6729   5.5694   0.00   0.00   0.00
 14067.60600  -2.326   4.9931   5.8743   0.00   0.00   0.00
 14078.79200  -2.071   4.9939   5.8743   0.00   0.00   0.00
 14079.30900  -3.025   4.9939   5.8743   0.00   0.00   0.00
 14107.77800  -1.500   4.8267   5.7053   0.00   0.00   0.00
 14116.85400  -1.346   4.8272   5.7053   0.00   0.00   0.00
 14116.85400  -2.647   4.8272   5.7053   0.00   0.00   0.00
 14363.96600  -2.656   4.9931   5.8561   0.00   0.00   0.00
 14376.16700  -2.355   4.9939   5.8561   0.00   0.00   0.00
 14447.23300  -2.228   4.9931   5.8511   0.00   0.00   0.00
 14449.46100  -3.492   4.8267   5.6845   0.00   0.00   0.00
 14451.52700  -2.793   4.8267   5.6844   0.00   0.00   0.00
 14458.56000  -1.973   4.9939   5.8512   0.00   0.00   0.00
 14458.98300  -2.538   4.8272   5.6845   0.00   0.00   0.00
 14459.57600  -2.927   4.9939   5.8511   0.00   0.00   0.00
 14874.48900  -2.488   4.9931   5.8265   0.00   0.00   0.00
 14887.57400  -2.187   4.9939   5.8265   0.00   0.00   0.00
 14990.64400  -2.124   4.9931   5.8200   0.00   0.00   0.00
 15002.62700  -1.869   4.9939   5.8201   0.00   0.00   0.00
 15003.93300  -2.824   4.9939   5.8200   0.00   0.00   0.00
 15645.37800  -2.288   4.9931   5.7854   0.00   0.00   0.00
 15659.85500  -1.987   4.9939   5.7854   0.00   0.00   0.00
 15815.07200  -2.029   4.9931   5.7769   0.00   0.00   0.00
 15828.28500  -1.774   4.9939   5.7770   0.00   0.00   0.00
 15829.86400  -2.728   4.9939   5.7769   0.00   0.00   0.00
 15956.67500  -1.397   4.8267   5.6035   0.00   0.00   0.00
 15968.28700  -1.243   4.8272   5.6035   0.00   0.00   0.00
 15968.28700  -1.243   4.8272   5.6035   0.00   0.00   0.00
 15968.28700  -2.544   4.8272   5.6035   0.00   0.00   0.00
 16499.37600  -3.975   5.1230   5.8743   0.00   0.00   0.00
 16684.72300  -3.161   4.8267   5.5696   0.00   0.00   0.00
 16689.23800  -2.463   4.8267   5.5694   0.00   0.00   0.00
 16697.41900  -2.207   4.8272   5.5696   0.00   0.00   0.00
 16718.95700   0.152   4.0853   4.8267   0.00   0.00   0.00
 16750.56400   0.408   4.0873   4.8272   0.00   0.00   0.00
 16763.36000  -0.550   4.0873   4.8267   0.00   0.00   0.00
 16910.32800  -2.042   4.9931   5.7261   0.00   0.00   0.00
 16927.24100  -1.741   4.9939   5.7261   0.00   0.00   0.00
 17022.65500  -3.725   5.1230   5.8512   0.00   0.00   0.00
 17024.04100  -3.880   5.1230   5.8511   0.00   0.00   0.00
 17173.13400  -1.983   4.9931   5.7149   0.00   0.00   0.00
 17187.94100  -1.728   4.9939   5.7150   0.00   0.00   0.00
 17190.57700  -2.682   4.9939   5.7149   0.00   0.00   0.00
 17699.09400  -1.162   4.6729   5.3733   0.00   0.00   0.00
 17708.07300  -1.463   4.6729   5.3729   0.00   0.00   0.00
 17781.84500  -4.927   5.1230   5.8201   0.00   0.00   0.00
 17781.87000  -3.626   5.1230   5.8201   0.00   0.00   0.00
 17783.68000  -3.781   5.1230   5.8200   0.00   0.00   0.00
 18942.34600  -1.743   5.2364   5.8907   0.00   0.00   0.00
 18953.68800  -4.838   5.1230   5.7770   0.00   0.00   0.00
 18953.71600  -3.537   5.1230   5.7770   0.00   0.00   0.00
 18955.95200  -3.692   5.1230   5.7769   0.00   0.00   0.00
 18956.92600  -1.588   5.2369   5.8907   0.00   0.00   0.00
 18956.92600  -2.889   5.2369   5.8907   0.00   0.00   0.00
 19280.14200  -1.715   4.9931   5.6360   0.00   0.00   0.00
 19302.13100  -1.415   4.9939   5.6360   0.00   0.00   0.00
 19482.28600  -2.538   5.2364   5.8726   0.00   0.00   0.00
 19497.70800  -2.384   5.2369   5.8726   0.00   0.00   0.00
 19497.70800  -3.685   5.2369   5.8726   0.00   0.00   0.00
 19709.93400  -2.194   4.9931   5.6220   0.00   0.00   0.00
 19727.33100  -1.939   4.9939   5.6222   0.00   0.00   0.00
 19732.91400  -2.893   4.9939   5.6220   0.00   0.00   0.00
 20102.35900  -2.598   5.2253   5.8419   0.00   0.00   0.00
 20103.68100  -2.899   5.2253   5.8419   0.00   0.00   0.00
 20241.49200  -2.300   5.2364   5.8487   0.00   0.00   0.00
 20258.14100  -2.146   5.2369   5.8487   0.00   0.00   0.00
 20258.14100  -3.447   5.2369   5.8487   0.00   0.00   0.00
 20395.58000  -1.748   4.8267   5.4344   0.00   0.00   0.00
 20414.53800  -1.593   4.8272   5.4344   0.00   0.00   0.00
 20414.55500  -2.894   4.8272   5.4344   0.00   0.00   0.00
 20470.00700  -3.114   5.2364   5.8419   0.00   0.00   0.00
 20471.37800  -2.415   5.2364   5.8419   0.00   0.00   0.00
 20487.03400  -2.160   5.2369   5.8419   0.00   0.00   0.00
 20936.93900  -4.813   5.1230   5.7150   0.00   0.00   0.00
 20936.97400  -3.512   5.1230   5.7150   0.00   0.00   0.00
 20940.85100  -3.667   5.1230   5.7149   0.00   0.00   0.00
 21093.02900  -0.309   4.0853   4.6729   0.00   0.00   0.00
 21163.75500  -0.009   4.0873   4.6729   0.00   0.00   0.00
 21309.07800  -2.366   5.2253   5.8070   0.00   0.00   0.00
 21311.13600  -2.667   5.2253   5.8069   0.00   0.00   0.00
 21367.97800  -2.010   5.2364   5.8165   0.00   0.00   0.00
 21386.53200  -1.856   5.2369   5.8165   0.00   0.00   0.00
 21386.53200  -3.157   5.2369   5.8165   0.00   0.00   0.00
 21722.64400  -2.913   5.2364   5.8070   0.00   0.00   0.00
 21724.78300  -2.214   5.2364   5.8069   0.00   0.00   0.00
 21741.82000  -1.959   5.2369   5.8070   0.00   0.00   0.00
 22677.40800  -2.626   4.8267   5.3733   0.00   0.00   0.00
 22692.15000  -1.928   4.8267   5.3729   0.00   0.00   0.00
 22700.86800  -1.673   4.8272   5.3733   0.00   0.00   0.00
 23172.93400  -1.647   5.2364   5.7713   0.00   0.00   0.00
 23194.75700  -1.490   5.2369   5.7713   0.00   0.00   0.00
 23194.75700  -1.493   5.2369   5.7713   0.00   0.00   0.00
 23194.75700  -2.794   5.2369   5.7713   0.00   0.00   0.00
 23285.63200  -2.070   5.2253   5.7576   0.00   0.00   0.00
 23289.16900  -2.371   5.2253   5.7575   0.00   0.00   0.00
 23780.36900  -2.663   5.2364   5.7576   0.00   0.00   0.00
 23784.05800  -1.964   5.2364   5.7575   0.00   0.00   0.00
 23803.35100  -1.709   5.2369   5.7576   0.00   0.00   0.00
 24724.06500  -2.273   5.3729   5.8743   0.00   0.00   0.00
 24739.99100  -2.018   5.3733   5.8743   0.00   0.00   0.00
 24741.58900  -2.973   5.3733   5.8743   0.00   0.00   0.00
 24830.42900  -3.958   5.1230   5.6222   0.00   0.00   0.00
 24839.22700  -4.113   5.1230   5.6220   0.00   0.00   0.00
 24985.95300  -1.220   4.9931   5.4892   0.00   0.00   0.00
 25022.89500  -0.920   4.9939   5.4892   0.00   0.00   0.00
 25654.32500  -2.386   5.3729   5.8561   0.00   0.00   0.00
 25670.55000  -2.104   4.9931   5.4760   0.00   0.00   0.00
 25673.19300  -2.085   5.3733   5.8561   0.00   0.00   0.00
 25693.38300  -1.849   4.9939   5.4763   0.00   0.00   0.00
 25709.54500  -2.804   4.9939   5.4760   0.00   0.00   0.00
 25921.15200  -2.179   5.3729   5.8511   0.00   0.00   0.00
 25937.14400  -1.924   5.3733   5.8512   0.00   0.00   0.00
 25940.41500  -2.879   5.3733   5.8511   0.00   0.00   0.00
 26433.58700  -1.169   5.2364   5.7053   0.00   0.00   0.00
 26461.98700  -1.014   5.2369   5.7053   0.00   0.00   0.00
 26461.98700  -2.315   5.2369   5.7053   0.00   0.00   0.00
 26992.04300  -1.663   5.2253   5.6845   0.00   0.00   0.00
 26999.25300  -1.964   5.2253   5.6844   0.00   0.00   0.00
 27329.62500  -2.188   5.3729   5.8265   0.00   0.00   0.00
 27351.03900  -1.887   5.3733   5.8265   0.00   0.00   0.00
 27659.06600  -2.328   5.2364   5.6845   0.00   0.00   0.00
 27666.63600  -1.630   5.2364   5.6844   0.00   0.00   0.00
 27690.16200  -1.375   5.2369   5.6845   0.00   0.00   0.00
 27724.32600  -2.089   5.3729   5.8200   0.00   0.00   0.00
 27741.89700  -1.834   5.3733   5.8201   0.00   0.00   0.00
 27746.36300  -2.788   5.3733   5.8200   0.00   0.00   0.00
 28179.40600  -4.463   5.4344   5.8743   0.00   0.00   0.00
 28179.43800  -3.162   5.4344   5.8743   0.00   0.00   0.00
 28181.47900  -3.317   5.4344   5.8743   0.00   0.00   0.00
 29743.07700  -4.330   5.4344   5.8512   0.00   0.00   0.00
 29743.11300  -3.029   5.4344   5.8512   0.00   0.00   0.00
 29747.37800  -3.184   5.4344   5.8511   0.00   0.00   0.00
 29886.84700  -0.659   5.4760   5.8907   0.00   0.00   0.00
 29908.71700  -0.505   5.4763   5.8907   0.00   0.00   0.00
 29908.71700  -1.806   5.4763   5.8907   0.00   0.00   0.00
 30050.08600  -1.942   5.3729   5.7854   0.00   0.00   0.00
 30075.97700  -1.641   5.3733   5.7854   0.00   0.00   0.00
 30682.41600  -2.031   5.3729   5.7769   0.00   0.00   0.00
 30703.46700  -1.776   5.3733   5.7770   0.00   0.00   0.00
 30709.40900  -2.731   5.3733   5.7769   0.00   0.00   0.00
 31253.47200  -1.475   5.4760   5.8726   0.00   0.00   0.00
 31277.38900  -1.321   5.4763   5.8726   0.00   0.00   0.00
 31277.38900  -2.622   5.4763   5.8726   0.00   0.00   0.00
 32140.81900  -4.176   5.4344   5.8201   0.00   0.00   0.00
 32140.86000  -2.874   5.4344   5.8201   0.00   0.00   0.00
 32146.81300  -3.029   5.4344   5.8200   0.00   0.00   0.00
 33254.36600  -1.261   5.4760   5.8487   0.00   0.00   0.00
 33281.44400  -1.107   5.4763   5.8487   0.00   0.00   0.00
 33281.44400  -2.408   5.4763   5.8487   0.00   0.00   0.00
 33763.83800  -0.482   5.2364   5.6035   0.00   0.00   0.00
 33810.18700  -0.327   5.2369   5.6035   0.00   0.00   0.00
 33810.18700  -1.628   5.2369   5.6035   0.00   0.00   0.00
 33875.65000  -2.612   5.4760   5.8419   0.00   0.00   0.00
 33879.40300  -1.913   5.4760   5.8419   0.00   0.00   0.00
 33903.75000  -1.658   5.4763   5.8419   0.00   0.00   0.00
 35084.41800  -4.010   5.1230   5.4763   0.00   0.00   0.00
 35084.51700  -2.709   5.1230   5.4763   0.00   0.00   0.00
 35091.90600  -1.614   5.3729   5.7261   0.00   0.00   0.00
 35114.56000  -2.864   5.1230   5.4760   0.00   0.00   0.00
 35127.21900  -1.314   5.3733   5.7261   0.00   0.00   0.00
 35146.43500  -2.235   5.4892   5.8419   0.00   0.00   0.00
 35150.47600  -2.536   5.4892   5.8419   0.00   0.00   0.00
 36001.91100  -1.023   5.2253   5.5696   0.00   0.00   0.00
 36022.93900  -1.324   5.2253   5.5694   0.00   0.00   0.00
 36184.51000  -3.995   5.4344   5.7770   0.00   0.00   0.00
 36184.56200  -2.694   5.4344   5.7770   0.00   0.00   0.00
 36192.76300  -2.849   5.4344   5.7769   0.00   0.00   0.00
 36242.87100  -2.146   5.3729   5.7149   0.00   0.00   0.00
 36268.80000  -1.891   5.3733   5.7150   0.00   0.00   0.00
 36280.54000  -2.846   5.3733   5.7149   0.00   0.00   0.00
 36407.63100  -0.996   5.4760   5.8165   0.00   0.00   0.00
 36440.09100  -0.842   5.4763   5.8165   0.00   0.00   0.00
 36440.09100  -2.143   5.4763   5.8165   0.00   0.00   0.00
 37198.42400  -1.811   5.2364   5.5696   0.00   0.00   0.00
 37220.87300  -1.113   5.2364   5.5694   0.00   0.00   0.00
 37254.68900  -0.858   5.2369   5.5696   0.00   0.00   0.00
 37449.42400  -2.367   5.4760   5.8070   0.00   0.00   0.00
 37455.78000  -1.668   5.4760   5.8069   0.00   0.00   0.00
 37483.76900  -1.414   5.4763   5.8070   0.00   0.00   0.00
 38622.49200   0.358   4.6729   4.9939   0.00   0.00   0.00
 38710.83200   0.056   4.6729   4.9931   0.00   0.00   0.00
 39008.65100  -1.944   5.4892   5.8070   0.00   0.00   0.00
 39015.54700  -2.245   5.4892   5.8069   0.00   0.00   0.00
 40657.53700  -2.220   5.5694   5.8743   0.00   0.00   0.00
 40680.03700  -1.965   5.5696   5.8743   0.00   0.00   0.00
 40684.35800  -2.920   5.5696   5.8743   0.00   0.00   0.00
 41830.17500   0.578   4.8267   5.1230   0.00   0.00   0.00
 41909.92800   0.732   4.8272   5.1230   0.00   0.00   0.00
 41910.06800  -0.569   4.8272   5.1230   0.00   0.00   0.00
 41978.77100  -0.648   5.4760   5.7713   0.00   0.00   0.00
 42021.93100  -0.493   5.4763   5.7713   0.00   0.00   0.00
 42021.93100  -1.794   5.4763   5.7713   0.00   0.00   0.00
 43235.68000  -2.110   5.5694   5.8561   0.00   0.00   0.00
 43266.01100  -1.810   5.5696   5.8561   0.00   0.00   0.00
 43998.98700  -2.135   5.5694   5.8511   0.00   0.00   0.00
 44015.51100  -2.041   5.4760   5.7576   0.00   0.00   0.00
 44020.97700  -1.879   5.5696   5.8512   0.00   0.00   0.00
 44028.15000  -1.343   5.4760   5.7575   0.00   0.00   0.00
 44030.39900  -2.834   5.5696   5.8511   0.00   0.00   0.00
 44062.96300  -1.088   5.4763   5.7576   0.00   0.00   0.00
 44172.67100  -3.799   5.4344   5.7150   0.00   0.00   0.00
 44172.74900  -2.498   5.4344   5.7150   0.00   0.00   0.00
 44190.08800  -2.653   5.4344   5.7149   0.00   0.00   0.00
 45771.92000  -2.638   5.6035   5.8743   0.00   0.00   0.00
 45771.92000  -3.939   5.6035   5.8743   0.00   0.00   0.00
 45777.39000  -2.793   5.6035   5.8743   0.00   0.00   0.00
 46127.90800  -0.249   5.6220   5.8907   0.00   0.00   0.00
 46158.44900  -0.095   5.6222   5.8907   0.00   0.00   0.00
 46158.44900  -1.396   5.6222   5.8907   0.00   0.00   0.00
 46185.27500  -1.544   5.4892   5.7576   0.00   0.00   0.00
 46199.19100  -1.846   5.4892   5.7575   0.00   0.00   0.00
 47107.62300  -1.113   5.3729   5.6360   0.00   0.00   0.00
 47171.28200  -0.812   5.3733   5.6360   0.00   0.00   0.00
 48216.95200  -1.865   5.5694   5.8265   0.00   0.00   0.00
 48254.67800  -1.564   5.5696   5.8265   0.00   0.00   0.00
 49459.23300  -2.073   5.5694   5.8200   0.00   0.00   0.00
 49466.35500  -1.049   5.6220   5.8726   0.00   0.00   0.00
 49484.71900  -1.818   5.5696   5.8201   0.00   0.00   0.00
 49498.92900  -2.773   5.5696   5.8200   0.00   0.00   0.00
 49501.47800  -0.894   5.6222   5.8726   0.00   0.00   0.00
 49501.47800  -2.195   5.6222   5.8726   0.00   0.00   0.00
 49758.69900  -2.829   5.3729   5.6220   0.00   0.00   0.00
 49794.14000  -2.574   5.3733   5.6222   0.00   0.00   0.00
 49829.73000  -3.529   5.3733   5.6220   0.00   0.00   0.00
 50045.49900  -2.457   5.6035   5.8512   0.00   0.00   0.00
 50045.49900  -3.758   5.6035   5.8512   0.00   0.00   0.00
 50057.67700  -2.612   5.6035   5.8511   0.00   0.00   0.00
 50960.81700   0.446   4.9931   5.2364   0.00   0.00   0.00
 51008.86800   0.701   4.9939   5.2369   0.00   0.00   0.00
 51114.72800  -0.255   4.9939   5.2364   0.00   0.00   0.00
 53391.77800  -0.109   4.9931   5.2253   0.00   0.00   0.00
 53560.74700   0.191   4.9939   5.2253   0.00   0.00   0.00
 54058.63400  -0.144   5.4760   5.7053   0.00   0.00   0.00
 54130.22900   0.010   5.4763   5.7053   0.00   0.00   0.00
 54130.22900  -1.291   5.4763   5.7053   0.00   0.00   0.00
 54673.02400  -0.807   5.6220   5.8487   0.00   0.00   0.00
 54715.93400  -0.653   5.6222   5.8487   0.00   0.00   0.00
 54715.93400  -1.954   5.6222   5.8487   0.00   0.00   0.00
 56372.81900  -2.208   5.6220   5.8419   0.00   0.00   0.00
 56383.21600  -1.509   5.6220   5.8419   0.00   0.00   0.00
 56418.43900  -1.254   5.6222   5.8419   0.00   0.00   0.00
 57229.08300  -2.227   5.6035   5.8201   0.00   0.00   0.00
 57229.08300  -3.528   5.6035   5.8201   0.00   0.00   0.00
 57248.09100  -2.382   5.6035   5.8200   0.00   0.00   0.00
 57382.09000  -1.535   5.5694   5.7854   0.00   0.00   0.00
 57435.52900  -1.235   5.5696   5.7854   0.00   0.00   0.00
 59444.95500  -1.548   5.4760   5.6845   0.00   0.00   0.00
 59479.93300  -0.849   5.4760   5.6844   0.00   0.00   0.00
 59531.53900  -0.594   5.4763   5.6845   0.00   0.00   0.00
 59732.79100  -2.146   5.5694   5.7769   0.00   0.00   0.00
 59768.18100  -1.891   5.5696   5.7770   0.00   0.00   0.00
 59790.70100  -2.846   5.5696   5.7769   0.00   0.00   0.00
 60211.77600  -1.845   5.6360   5.8419   0.00   0.00   0.00
 60223.63600  -2.146   5.6360   5.8419   0.00   0.00   0.00
 62585.91800   0.763   5.2364   5.4344   0.00   0.00   0.00
 62745.20000   0.917   5.2369   5.4344   0.00   0.00   0.00
 62745.35700  -0.384   5.2369   5.4344   0.00   0.00   0.00
 63472.13800  -0.916   5.4892   5.6845   0.00   0.00   0.00
 63512.01700  -1.217   5.4892   5.6844   0.00   0.00   0.00
 63750.76800  -0.494   5.6220   5.8165   0.00   0.00   0.00
 63809.11700  -0.339   5.6222   5.8165   0.00   0.00   0.00
 63809.11700  -1.640   5.6222   5.8165   0.00   0.00   0.00
 65283.88800  -2.163   5.6844   5.8743   0.00   0.00   0.00
 65314.93800  -1.908   5.6845   5.8743   0.00   0.00   0.00
 65326.07700  -2.863   5.6845   5.8743   0.00   0.00   0.00
 66010.04600  -3.765   5.4344   5.6222   0.00   0.00   0.00
 66010.22000  -2.464   5.4344   5.6222   0.00   0.00   0.00
 66072.60600  -2.619   5.4344   5.6220   0.00   0.00   0.00
 67015.15700  -1.888   5.6220   5.8070   0.00   0.00   0.00
 67035.51400  -1.189   5.6220   5.8069   0.00   0.00   0.00
 67079.63800  -0.934   5.6222   5.8070   0.00   0.00   0.00
 70500.94900   0.044   5.7149   5.8907   0.00   0.00   0.00
 70545.32500   0.199   5.7150   5.8907   0.00   0.00   0.00
 70545.32500  -1.102   5.7150   5.8907   0.00   0.00   0.00
 71445.48800  -1.922   5.6035   5.7770   0.00   0.00   0.00
 71445.48800  -3.223   5.6035   5.7770   0.00   0.00   0.00
 71477.67000  -2.077   5.6035   5.7769   0.00   0.00   0.00
 72196.56000  -1.800   5.6844   5.8561   0.00   0.00   0.00
 72248.16100  -1.500   5.6845   5.8561   0.00   0.00   0.00
 72511.06300  -1.451   5.6360   5.8070   0.00   0.00   0.00
 72534.89600  -1.752   5.6360   5.8069   0.00   0.00   0.00
 73344.50700  -2.168   5.7053   5.8743   0.00   0.00   0.00
 73344.50700  -3.469   5.7053   5.8743   0.00   0.00   0.00
 73358.55400  -2.323   5.7053   5.8743   0.00   0.00   0.00
 74138.07200  -0.801   4.8267   4.9939   0.00   0.00   0.00
 74350.40400  -2.102   5.6844   5.8511   0.00   0.00   0.00
 74378.22800  -1.847   5.6845   5.8512   0.00   0.00   0.00
 74389.40800   0.152   4.8272   4.9939   0.00   0.00   0.00
 74405.13100  -2.801   5.6845   5.8511   0.00   0.00   0.00
 74464.26500  -0.104   4.8267   4.9931   0.00   0.00   0.00
 78609.44700  -0.721   5.7149   5.8726   0.00   0.00   0.00
 78664.62200  -0.566   5.7150   5.8726   0.00   0.00   0.00
 78664.62200  -1.868   5.7150   5.8726   0.00   0.00   0.00
 79077.22100  -1.029   5.5694   5.7261   0.00   0.00   0.00
 79178.74300  -0.729   5.5696   5.7261   0.00   0.00   0.00
 83050.39500  -0.045   5.6220   5.7713   0.00   0.00   0.00
 83149.44900   0.109   5.6222   5.7713   0.00   0.00   0.00
 83149.44900  -1.192   5.6222   5.7713   0.00   0.00   0.00
 83766.09800   0.455   5.2253   5.3733   0.00   0.00   0.00
 83967.59600   0.153   5.2253   5.3729   0.00   0.00   0.00
 84971.53000  -1.920   5.7053   5.8512   0.00   0.00   0.00
 84971.53000  -3.221   5.7053   5.8512   0.00   0.00   0.00
 85006.64400  -2.075   5.7053   5.8511   0.00   0.00   0.00
 85172.34600  -3.825   5.5694   5.7149   0.00   0.00   0.00
 85225.27700  -3.570   5.5696   5.7150   0.00   0.00   0.00
 85290.13300  -4.525   5.5696   5.7149   0.00   0.00   0.00
 87247.67100  -1.470   5.6844   5.8265   0.00   0.00   0.00
 87323.04100  -1.170   5.6845   5.8265   0.00   0.00   0.00
 90542.31000  -0.566   5.2364   5.3733   0.00   0.00   0.00
 90777.77300   0.132   5.2364   5.3729   0.00   0.00   0.00
 90876.38200   0.387   5.2369   5.3733   0.00   0.00   0.00
 91401.81300  -2.152   5.6844   5.8200   0.00   0.00   0.00
 91419.53300  -1.407   5.6220   5.7576   0.00   0.00   0.00
 91436.00500  -1.897   5.6845   5.8201   0.00   0.00   0.00
 91474.07100  -0.708   5.6220   5.7575   0.00   0.00   0.00
 91484.53500  -2.851   5.6845   5.8200   0.00   0.00   0.00
 91539.57000  -0.454   5.6222   5.7576   0.00   0.00   0.00
 92627.65000  -0.424   5.7149   5.8487   0.00   0.00   0.00
 92704.26600  -0.269   5.7150   5.8487   0.00   0.00   0.00
 92704.26600  -1.570   5.7150   5.8487   0.00   0.00   0.00
 97226.48500   0.769   5.4760   5.6035   0.00   0.00   0.00
 97458.32000   0.923   5.4763   5.6035   0.00   0.00   0.00
 97458.32000  -0.378   5.4763   5.6035   0.00   0.00   0.00
 97645.46300  -1.082   5.7149   5.8419   0.00   0.00   0.00
 97699.37800  -0.827   5.7150   5.8419   0.00   0.00   0.00
