#  Wav (A)    log gf    E (l, u) (eV)    rad    stark  waals
   408.27400  -2.480   0.0000  30.3682   0.00   0.00   0.00
   408.37800  -2.780   0.0000  30.3605   0.00   0.00   0.00
   423.81700  -2.155   0.0000  29.2545   9.27   0.00   0.00
   426.56900  -2.320   0.0000  29.0657   0.00   0.00   0.00
   426.64400  -2.620   0.0000  29.0607   0.00   0.00   0.00
   465.12800  -2.310   0.0000  26.6562   0.00   0.00   0.00
   466.13100  -1.650   0.0000  26.5989   0.00   0.00   0.00
   488.54100  -4.360   6.5371  31.9158   0.00   0.00   0.00
   488.84900  -4.000   6.5530  31.9158   0.00   0.00   0.00
   488.84900  -4.480   6.5530  31.9158   0.00   0.00   0.00
   489.47500  -3.790   6.5855  31.9158   0.00   0.00   0.00
   489.47500  -4.540   6.5855  31.9158   0.00   0.00   0.00
   496.82700  -3.710   6.5371  31.4926   0.00   0.00   0.00
   497.14000  -3.350   6.5530  31.4928   0.00   0.00   0.00
   497.14500  -3.830   6.5530  31.4926   0.00   0.00   0.00
   497.77900  -3.110   6.5855  31.4932   0.00   0.00   0.00
   497.78700  -3.860   6.5855  31.4928   0.00   0.00   0.00
   507.50700  -2.880   6.5371  30.9674   0.00   0.00   0.00
   507.60400  -6.511   6.5530  30.9787   8.37   0.00   0.00
   507.83900  -2.400   6.5530  30.9674   0.00   0.00   0.00
   508.51500  -2.180   6.5855  30.9674   0.00   0.00   0.00
   509.24600  -2.990   6.5371  30.8840   0.00   0.00   0.00
   509.55300  -2.640   6.5530  30.8853   0.00   0.00   0.00
   509.58000  -3.110   6.5530  30.8840   0.00   0.00   0.00
   510.18800  -2.330   6.5855  30.8874   0.00   0.00   0.00
   510.23300  -3.130   6.5855  30.8853   0.00   0.00   0.00
   510.26000  -4.310   6.5855  30.8840   0.00   0.00   0.00
   511.99400  -2.559   6.5530  30.7692   9.20   0.00   0.00
   512.21900  -2.649   6.5371  30.7427   9.20   0.00   0.00
   512.55700  -2.779   6.5530  30.7427   9.20   0.00   0.00
   512.68100  -2.079   6.5855  30.7692   9.20   0.00   0.00
   512.77200  -2.649   6.5530  30.7325   9.20   0.00   0.00
   513.24500  -2.559   6.5855  30.7427   9.20   0.00   0.00
   520.79900  -1.536   6.5530  30.3598   8.43   0.00   0.00
   520.80000  -1.886   6.5371  30.3438   8.43   0.00   0.00
   520.91000  -1.266   6.5855  30.3872   8.43   0.00   0.00
   521.14900  -2.016   6.5530  30.3438   8.43   0.00   0.00
   521.51000  -2.016   6.5855  30.3598   8.43   0.00   0.00
   521.86100  -3.186   6.5855  30.3438   8.43   0.00   0.00
   527.19100  -6.263   6.5530  30.0712   8.56   0.00   0.00
   527.92600  -2.610   6.5371  30.0225   0.00   0.00   0.00
   528.28500  -2.130   6.5530  30.0225   0.00   0.00   0.00
   529.01600  -1.910   6.5855  30.0225   0.00   0.00   0.00
   533.22600  -3.970   6.5371  29.7890   0.00   0.00   0.00
   533.53000  -3.620   6.5530  29.7918   0.00   0.00   0.00
   533.59200  -4.090   6.5530  29.7890   0.00   0.00   0.00
   534.18900  -3.550   6.5855  29.7955   0.00   0.00   0.00
   534.27600  -4.030   6.5855  29.7918   0.00   0.00   0.00
   534.33900  -3.870   6.5855  29.7890   7.77   0.00   0.00
   563.34500  -5.939   6.5530  28.5619   8.77   0.00   0.00
   565.29600  -2.300   6.5371  28.4699   0.00   0.00   0.00
   565.70700  -1.820   6.5530  28.4699   0.00   0.00   0.00
   566.54600  -1.600   6.5855  28.4699   0.00   0.00   0.00
   566.61300  -1.340   0.0000  21.8819   8.82   0.00   0.00
   570.57100  -4.470   0.0000  21.7301   0.00   0.00   0.00
   571.54600  -3.370  10.2765  31.9695   0.00   0.00   0.00
   573.53800  -2.900   6.5371  28.1548   0.00   0.00   0.00
   573.95100  -2.550   6.5530  28.1551   0.00   0.00   0.00
   573.96100  -3.030   6.5530  28.1548   0.00   0.00   0.00
   574.79900  -2.310   6.5855  28.1557   0.00   0.00   0.00
   574.81400  -3.060   6.5855  28.1551   0.00   0.00   0.00
   574.82400  -4.230   6.5855  28.1548   0.00   0.00   0.00
   581.79300  -2.510  10.2765  31.5874   0.00   0.00   0.00
   596.11800  -1.750  10.2765  31.0753   0.00   0.00   0.00
   598.90000  -2.290  10.2765  30.9787   0.00   0.00   0.00
   599.22700  -6.745  10.2765  30.9674   9.45   0.00   0.00
   624.99700  -0.959  10.2765  30.1143   9.70   0.00   0.00
   626.35600  -2.040  10.2765  30.0712   0.00   0.00   0.00
   627.90100  -6.479  10.2765  30.0225   9.47   0.00   0.00
   634.25500  -1.830  10.2765  29.8247   0.00   0.00   0.00
   635.32500  -3.880  10.2765  29.7918   0.00   0.00   0.00
   645.07500  -5.469   6.5530  25.7734   8.97   0.00   0.00
   651.67200  -1.860   6.5371  25.5628   0.00   0.00   0.00
   652.21900  -1.380   6.5530  25.5628   0.00   0.00   0.00
   653.33400  -1.160   6.5855  25.5628   0.00   0.00   0.00
   671.71300  -2.120   6.5371  24.9952   8.46   0.00   0.00
   672.29200  -1.770   6.5530  24.9953   8.46   0.00   0.00
   672.29400  -2.250   6.5530  24.9952   8.46   0.00   0.00
   673.47100  -1.500   6.5855  24.9954   8.46   0.00   0.00
   673.47700  -2.250   6.5855  24.9953   8.46   0.00   0.00
   673.47900  -3.420   6.5855  24.9952   8.46   0.00   0.00
   678.05800  -1.720  10.2765  28.5619   0.00   0.00   0.00
   681.48300  -6.178  10.2765  28.4699   9.51   0.00   0.00
   690.70000  -1.680  10.2765  28.2272   9.45   0.00   0.00
   800.06600  -1.270  10.2765  25.7734   0.00   0.00   0.00
   811.08500  -5.754  10.2765  25.5628   9.56   0.00   0.00
   823.40900  -0.474  10.2765  25.3341   9.52   0.00   0.00
   870.41500  -1.020  17.7229  31.9674   0.00   0.00   0.00
   870.41500  -2.090  17.7229  31.9674   0.00   0.00   0.00
   870.41500  -3.630  17.7229  31.9674   0.00   0.00   0.00
   870.43100  -1.190  17.7232  31.9674   0.00   0.00   0.00
   870.43100  -2.090  17.7232  31.9674   0.00   0.00   0.00
   870.45000  -1.360  17.7235  31.9674   0.00   0.00   0.00
   879.22500  -1.000  15.1528  29.2545   9.28   0.00   0.00
   883.39700   0.700  15.1528  29.1879   9.91   0.00   0.00
   885.64800  -3.820   6.5530  20.5525   0.00   0.00   0.00
   891.47900  -0.870  15.1528  29.0607   8.86   0.00   0.00
   895.94600  -0.840  17.7229  31.5615   0.00   0.00   0.00
   895.94900  -1.900  17.7229  31.5614   0.00   0.00   0.00
   895.95100  -3.440  17.7229  31.5614   0.00   0.00   0.00
   895.96600  -1.000  17.7232  31.5614   0.00   0.00   0.00
   895.96800  -1.900  17.7232  31.5614   0.00   0.00   0.00
   895.98700  -1.170  17.7235  31.5614   0.00   0.00   0.00
   936.05600  -0.610  17.7229  30.9685   0.00   0.00   0.00
   936.05800  -1.680  17.7229  30.9684   0.00   0.00   0.00
   936.06000  -3.220  17.7229  30.9684   0.00   0.00   0.00
   936.07700  -0.770  17.7232  30.9684   0.00   0.00   0.00
   936.07900  -1.680  17.7232  30.9684   0.00   0.00   0.00
   936.10000  -0.940  17.7235  30.9684   0.00   0.00   0.00
   939.09700  -0.469  15.1528  28.3555   9.76   0.00   0.00
   941.47500  -4.670   6.5530  19.7223   0.00   0.00   0.00
   967.94400  -0.337  15.1528  27.9620   8.78   0.00   0.00
   980.39600  -2.120  17.7229  30.3694   0.00   0.00   0.00
   980.41600  -2.870  17.7232  30.3694   0.00   0.00   0.00
   980.44000  -4.050  17.7235  30.3694   0.00   0.00   0.00
   980.51200  -2.870  17.7232  30.3682   0.00   0.00   0.00
   980.53500  -3.350  17.7235  30.3682   0.00   0.00   0.00
   980.58000  -2.750  17.7235  30.3676   0.00   0.00   0.00
   981.10700  -2.570  17.7232  30.3605   0.00   0.00   0.00
   981.13100  -3.050  17.7235  30.3605   0.00   0.00   0.00
   993.51900  -1.315   6.5371  19.0165   8.98   0.00   0.00
   994.79000  -0.845   6.5530  19.0165   8.98   0.00   0.00
   997.38600  -0.625   6.5855  19.0165   8.98   0.00   0.00
  1005.34900  -0.330  17.7229  30.0555   0.00   0.00   0.00
  1005.35300  -1.400  17.7229  30.0555   0.00   0.00   0.00
  1005.35700  -2.940  17.7229  30.0554   0.00   0.00   0.00
  1005.37400  -0.490  17.7232  30.0555   0.00   0.00   0.00
  1005.37800  -1.400  17.7232  30.0554   0.00   0.00   0.00
  1005.40300  -0.660  17.7235  30.0554   0.00   0.00   0.00
  1031.15800  -1.161  16.0985  28.1224   9.87   0.00   0.00
  1032.85500  -1.251  16.0820  28.0861   9.87   0.00   0.00
  1033.91500  -0.681  16.1306  28.1224   9.87   0.00   0.00
  1034.28200  -1.381  16.0985  28.0861   9.87   0.00   0.00
  1035.64700  -1.251  16.0985  28.0703   9.87   0.00   0.00
  1037.05500  -1.161  16.1306  28.0861   9.87   0.00   0.00
  1083.21600  -0.432  15.1528  26.5989   9.04   0.00   0.00
  1084.03000  -1.470  20.5525  31.9899   0.00   0.00   0.00
  1092.10500  -2.690  19.0165  30.3694   0.00   0.00   0.00
  1092.22400  -3.390  19.0165  30.3682   0.00   0.00   0.00
  1092.27900  -3.390  19.0165  30.3676   0.00   0.00   0.00
  1092.91500  -1.780  17.7229  29.0674   0.00   0.00   0.00
  1092.94000  -2.530  17.7232  29.0674   0.00   0.00   0.00
  1092.96300  -3.090  19.0165  30.3605   0.00   0.00   0.00
  1092.96900  -3.710  17.7235  29.0674   0.00   0.00   0.00
  1093.10500  -2.530  17.7232  29.0657   0.00   0.00   0.00
  1093.13300  -3.010  17.7235  29.0657   0.00   0.00   0.00
  1093.29300  -2.400  17.7235  29.0641   0.00   0.00   0.00
  1093.59200  -2.230  17.7232  29.0607   0.00   0.00   0.00
  1093.62100  -2.710  17.7235  29.0607   0.00   0.00   0.00
  1108.35800  -0.056   6.5371  17.7235   9.45  -6.05   0.00
  1109.94000  -0.186   6.5530  17.7235   9.45  -6.05   0.00
  1109.97000   0.294   6.5530  17.7232   9.45  -6.05   0.00
  1113.17400  -1.356   6.5855  17.7235   9.45  -6.05   0.00
  1113.20400  -0.186   6.5855  17.7232   9.45  -6.05   0.00
  1113.23000   0.564   6.5855  17.7229   9.45  -6.05   0.00
  1122.45500  -1.230  20.5525  31.5984   0.00   0.00   0.00
  1140.54600   0.120  16.0820  26.9527   0.01   0.00   0.00
  1141.57900   0.470  16.0985  26.9594   0.01   0.00   0.00
  1142.28500  -0.010  16.0985  26.9527   0.01   0.00   0.00
  1144.30900   0.740  16.1306  26.9655   0.01   0.00   0.00
  1144.95900  -0.010  16.1306  26.9594   0.01   0.00   0.00
  1145.12200   0.040  17.7229  28.5502   0.00   0.00   0.00
  1145.14900  -1.040  17.7229  28.5500   0.00   0.00   0.00
  1145.16100  -2.890  17.7229  28.5499   0.00   0.00   0.00
  1145.17700  -0.140  17.7232  28.5500   0.00   0.00   0.00
  1145.18900  -1.020  17.7232  28.5499   0.00   0.00   0.00
  1145.22000  -0.290  17.7235  28.5499   0.00   0.00   0.00
  1145.66900  -1.180  16.1306  26.9527   0.01   0.00   0.00
  1154.99800  -0.350  16.0820  26.8167   9.93   0.00   0.00
  1155.95900  -0.350  16.0985  26.8243   9.93   0.00   0.00
  1156.78200  -0.480  16.0985  26.8167   9.93   0.00   0.00
  1158.10100  -0.260  16.0985  26.8045   9.93   0.00   0.00
  1160.25200  -0.260  16.1306  26.8167   9.93   0.00   0.00
  1161.57900   0.220  16.1306  26.8045   9.93   0.00   0.00
  1164.63600  -2.300  19.7223  30.3682   0.00   0.00   0.00
  1165.47600  -2.600  19.7223  30.3605   0.00   0.00   0.00
  1172.52300  -1.804  16.0820  26.6562   9.73   0.00   0.00
  1174.35000  -1.804  16.0985  26.6563   9.73   0.00   0.00
  1174.36100  -1.934  16.0985  26.6562   9.73   0.00   0.00
  1174.43500  -1.714  16.0985  26.6555   9.73   0.00   0.00
  1177.93800  -1.714  16.1306  26.6562   9.73   0.00   0.00
  1178.01200  -1.234  16.1306  26.6555   9.73   0.00   0.00
  1182.01600  -0.910  20.5525  31.0418   0.00   0.00   0.00
  1192.22800  -0.510  17.7229  28.1224   9.70   0.00   0.00
  1192.25800  -1.260  17.7232  28.1224   9.70   0.00   0.00
  1192.29300  -2.430  17.7235  28.1224   9.70   0.00   0.00
  1196.43600  -0.780  17.7232  28.0861   9.70   0.00   0.00
  1196.47000  -1.260  17.7235  28.0861   9.70   0.00   0.00
  1198.29700  -1.130  17.7235  28.0703   9.71   0.00   0.00
  1206.50000   0.230   0.0000  10.2765   9.41  -5.96   0.00
  1206.55500   0.728  10.2765  20.5525   9.87  -6.00   0.00
  1207.51700   0.310  15.1528  25.4206   9.29   0.00   0.00
  1210.86800  -4.720  21.7301  31.9695   0.00   0.00   0.00
  1212.02000  -1.367  19.0249  29.2545   9.65   0.00   0.00
  1216.75800  -3.600  21.7260  31.9158   0.00   0.00   0.00
  1217.24800  -3.250  21.7301  31.9158   0.00   0.00   0.00
  1217.24800  -3.720  21.7301  31.9158   0.00   0.00   0.00
  1218.33300  -3.010  21.7392  31.9158   0.00   0.00   0.00
  1218.33300  -3.760  21.7392  31.9158   0.00   0.00   0.00
  1218.33300  -4.930  21.7392  31.9158   0.00   0.00   0.00
  1229.08500  -1.960  21.8819  31.9695   0.00   0.00   0.00
  1233.57600  -2.620  19.0165  29.0674   0.00   0.00   0.00
  1233.78600  -3.320  19.0165  29.0657   0.00   0.00   0.00
  1233.98900  -3.320  19.0165  29.0641   0.00   0.00   0.00
  1234.40700  -3.020  19.0165  29.0607   0.00   0.00   0.00
  1235.43100  -0.807  19.0249  29.0607   9.52   0.00   0.00
  1257.80400  -4.350  21.7301  31.5874   0.00   0.00   0.00
  1269.48700  -3.070  21.7260  31.4926   0.00   0.00   0.00
  1269.98800  -2.720  21.7301  31.4928   0.00   0.00   0.00
  1270.02000  -3.190  21.7301  31.4926   0.00   0.00   0.00
  1271.11300  -2.470  21.7392  31.4932   0.00   0.00   0.00
  1271.16900  -3.220  21.7392  31.4928   0.00   0.00   0.00
  1271.20100  -4.390  21.7392  31.4926   0.00   0.00   0.00
  1277.47300  -1.560  21.8819  31.5874   0.00   0.00   0.00
  1280.35200  -0.500  20.5525  30.2362   0.00   0.00   0.00
  1294.54500  -0.037   6.5530  16.1306   9.33  -5.74   0.00
  1296.72600  -0.127   6.5371  16.0985   9.33  -5.74   0.00
  1298.89200  -0.257   6.5530  16.0985   9.33  -5.74   0.00
  1298.94600   0.443   6.5855  16.1306   9.33  -5.74   0.00
  1300.70300  -1.770  19.7223  29.2545   9.39   0.00   0.00
  1301.14900  -0.127   6.5530  16.0820   9.33  -5.74   0.00
  1303.32300  -0.037   6.5855  16.0985   9.33  -5.74   0.00
  1312.59100  -0.840  10.2765  19.7223   9.50   0.00   0.00
  1326.72700  -3.950  21.7301  31.0753   0.00   0.00   0.00
  1326.98500  -2.100  19.7223  29.0657   0.00   0.00   0.00
  1327.70300  -2.400  19.7223  29.0607   0.00   0.00   0.00
  1328.80600   0.330  19.0249  28.3555   9.92   0.00   0.00
  1340.58800  -4.580  21.7301  30.9787   0.00   0.00   0.00
  1341.45800   0.230  17.7229  26.9655   9.89   0.00   0.00
  1341.49600  -0.680  17.7232  26.9655   9.89   0.00   0.00
  1341.63000  -2.300  21.7260  30.9674   0.00   0.00   0.00
  1342.22600  -1.820  21.7301  30.9674   0.00   0.00   0.00
  1342.35100  -0.680  17.7229  26.9594   9.89   0.00   0.00
  1342.38900  -0.030  17.7232  26.9594   9.89   0.00   0.00
  1342.43200  -0.690  17.7235  26.9594   9.90   0.00   0.00
  1343.36500  -0.690  17.7232  26.9527   9.90   0.00   0.00
  1343.40900  -0.210  17.7235  26.9527   9.90   0.00   0.00
  1343.54600  -1.600  21.7392  30.9674   0.00   0.00   0.00
  1348.62900  -1.120  21.8819  31.0753   0.00   0.00   0.00
  1353.84900  -2.430  21.7260  30.8840   0.00   0.00   0.00
  1354.26500  -2.070  21.7301  30.8853   0.00   0.00   0.00
  1354.45600  -2.550  21.7301  30.8840   0.00   0.00   0.00
  1355.29100  -1.780  21.7392  30.8874   0.00   0.00   0.00
  1355.60800  -2.560  21.7392  30.8853   0.00   0.00   0.00
  1355.79900  -3.740  21.7392  30.8840   0.00   0.00   0.00
  1361.59600   0.325  19.0165  28.1224   9.50   0.00   0.00
  1362.36100  -0.500  17.7235  26.8243   9.80   0.00   0.00
  1362.95400  -1.820  21.8819  30.9787   0.00   0.00   0.00
  1363.45900  -0.150  17.7232  26.8167   9.79   0.00   0.00
  1363.50400  -0.630  17.7235  26.8167   9.79   0.00   0.00
  1364.64700  -4.600  21.8819  30.9674   0.00   0.00   0.00
  1365.25300   0.120  17.7229  26.8045   9.79   0.00   0.00
  1365.29200  -0.630  17.7232  26.8045   9.79   0.00   0.00
  1365.33700  -1.800  17.7235  26.8045   9.79   0.00   0.00
  1367.04700   0.105  19.0165  28.0861   9.50   0.00   0.00
  1369.43200  -0.365  19.0165  28.0703   9.50   0.00   0.00
  1371.64900  -0.360  21.7301  30.7692   9.26   0.00   0.00
  1373.02700   0.120  21.7392  30.7692   9.26   0.00   0.00
  1375.06800  -0.450  21.7260  30.7427   9.26   0.00   0.00
  1375.69400  -0.580  21.7301  30.7427   9.26   0.00   0.00
  1377.08000  -0.360  21.7392  30.7427   9.26   0.00   0.00
  1377.24800  -0.450  21.7301  30.7325   9.26   0.00   0.00
  1387.94800  -1.640  17.7232  26.6562   0.00   0.00   0.00
  1387.97900  -1.910  17.7235  26.6563   0.00   0.00   0.00
  1387.99400  -2.120  17.7235  26.6562   0.00   0.00   0.00
  1388.01100  -1.290  17.7229  26.6555   0.00   0.00   0.00
  1388.05200  -2.030  17.7232  26.6555   0.00   0.00   0.00
  1388.09800  -3.210  17.7235  26.6555   0.00   0.00   0.00
  1396.91500  -2.300  17.7232  26.5989   0.00   0.00   0.00
  1396.96200  -2.780  17.7235  26.5989   0.00   0.00   0.00
  1417.23700  -0.106  10.2765  19.0249   9.72   0.00   0.00
  1418.58800  -5.000  10.2765  19.0165   9.55   0.00   0.00
  1424.78400   0.104  20.5525  29.2545   9.83   0.00   0.00
  1435.77200   0.650  20.5525  29.1879   0.12   0.00   0.00
  1436.16000  -0.057  19.7223  28.3555   9.80   0.00   0.00
  1456.38000  -4.440  20.5525  29.0657   0.00   0.00   0.00
  1457.24500  -4.740  20.5525  29.0607   0.00   0.00   0.00
  1486.44000  -4.280  21.7301  30.0712   0.00   0.00   0.00
  1494.43100  -1.980  21.7260  30.0225   0.00   0.00   0.00
  1495.17100  -1.510  21.7301  30.0225   0.00   0.00   0.00
  1496.80800  -1.280  21.7392  30.0225   0.00   0.00   0.00
  1500.24100   0.429  17.7229  25.9873   9.57   0.00   0.00
  1501.15000  -0.621  17.7229  25.9823   9.57   0.00   0.00
  1501.19700   0.269  17.7232  25.9823   9.57   0.00   0.00
  1501.78000  -2.251  17.7229  25.9789   9.57   0.00   0.00
  1501.82700  -0.621  17.7232  25.9789   9.57   0.00   0.00
  1501.88100   0.099  17.7235  25.9789   9.57   0.00   0.00
  1506.06700   0.253  21.8819  30.1143   9.48   0.00   0.00
  1513.98700  -1.510  21.8819  30.0712   0.00   0.00   0.00
  1523.04600  -4.290  21.8819  30.0225   0.00   0.00   0.00
  1537.69800  -3.330  21.7260  29.7890   0.00   0.00   0.00
  1537.96000  -2.980  21.7301  29.7918   0.00   0.00   0.00
  1538.48100  -3.460  21.7301  29.7890   0.00   0.00   0.00
  1538.97400  -2.600  21.7392  29.7955   0.00   0.00   0.00
  1539.69300  -3.520  21.7392  29.7918   0.00   0.00   0.00
  1540.21500  -4.700  21.7392  29.7890   0.00   0.00   0.00
  1560.97400  -2.610  21.8819  29.8247   0.00   0.00   0.00
  1567.47000  -4.950  21.8819  29.7918   0.00   0.00   0.00
  1587.97700  -1.628  19.0165  26.8243   9.64   0.00   0.00
  1588.94700   0.100  20.5525  28.3555   0.03   0.00   0.00
  1589.53100  -1.158  19.0165  26.8167   9.64   0.00   0.00
  1592.02200  -0.938  19.0165  26.8045   9.64   0.00   0.00
  1622.89200  -3.010  19.0165  26.6563   0.00   0.00   0.00
  1622.91300  -2.620  19.0165  26.6562   0.00   0.00   0.00
  1623.05500  -2.310  19.0165  26.6555   0.00   0.00   0.00
  1635.18600  -3.280  19.0165  26.5989   0.00   0.00   0.00
  1636.98400  -1.337  19.0249  26.5989   9.56   0.00   0.00
  1664.89500  -4.820  10.2765  17.7235   0.00   0.00   0.00
  1664.96200  -4.340  10.2765  17.7232   0.00   0.00   0.00
  1778.29400  -1.150  24.9952  31.9674   0.00   0.00   0.00
  1778.31100  -0.980  24.9953  31.9674   0.00   0.00   0.00
  1778.31100  -1.890  24.9953  31.9674   0.00   0.00   0.00
  1778.34900  -0.820  24.9954  31.9674   0.00   0.00   0.00
  1778.34900  -1.890  24.9954  31.9674   0.00   0.00   0.00
  1778.34900  -3.430  24.9954  31.9674   0.00   0.00   0.00
  1778.71500   0.250  17.7229  24.6935   9.51   0.00   0.00
  1783.07900  -0.800  17.7229  24.6764   9.51   0.00   0.00
  1783.14600   0.090  17.7232  24.6764   9.51   0.00   0.00
  1786.37100  -2.430  17.7229  24.6636   9.51   0.00   0.00
  1786.43800  -0.800  17.7232  24.6636   9.51   0.00   0.00
  1786.51500  -0.080  17.7235  24.6636   9.51   0.00   0.00
  1788.10800  -2.040  19.7223  26.6562   0.00   0.00   0.00
  1803.01800  -1.390  19.7223  26.5989   0.00   0.00   0.00
  1814.83700  -3.830  21.7301  28.5619   0.00   0.00   0.00
  1838.46600  -1.550  21.7260  28.4699   8.94   0.00   0.00
  1839.58500  -1.080  21.7301  28.4699   8.94   0.00   0.00
  1842.06400  -0.860  21.7392  28.4699   8.94   0.00   0.00
  1842.54800  -0.389  15.1528  21.8819   8.83   0.00   0.00
  1856.07000  -1.080  21.8819  28.5619   9.10   0.00   0.00
  1862.80200  -0.930  25.3341  31.9899   0.00   0.00   0.00
  1881.96300  -3.840  21.8819  28.4699   0.00   0.00   0.00
  1885.88400  -1.040  25.3957  31.9701   0.00   0.00   0.00
  1885.88400  -1.230  25.3957  31.9701   0.00   0.00   0.00
  1885.88400  -5.000  25.3957  31.9701   0.00   0.00   0.00
  1886.06500  -3.750  25.3957  31.9695   0.00   0.00   0.00
  1888.24200  -0.950  24.9952  31.5614   0.00   0.00   0.00
  1888.25400  -0.780  24.9953  31.5614   0.00   0.00   0.00
  1888.26200  -1.680  24.9953  31.5614   0.00   0.00   0.00
  1888.28300  -0.620  24.9954  31.5615   0.00   0.00   0.00
  1888.29700  -1.680  24.9954  31.5614   0.00   0.00   0.00
  1888.30500  -3.220  24.9954  31.5614   0.00   0.00   0.00
  1892.03000  -4.320   0.0000   6.5530   3.94   0.00   0.00
  1901.59100  -4.870  25.3957  31.9158   0.00   0.00   0.00
  1908.32400  -3.900  21.7301  28.2272   0.00   0.00   0.00
  1928.59600  -1.590  21.7260  28.1548   0.00   0.00   0.00
  1929.71600  -1.240  21.7301  28.1551   0.00   0.00   0.00
  1929.82800  -1.710  21.7301  28.1548   0.00   0.00   0.00
  1932.27500  -0.980  21.7392  28.1557   0.00   0.00   0.00
  1932.44400  -1.720  21.7392  28.1551   0.00   0.00   0.00
  1932.55600  -2.900  21.7392  28.1548   0.00   0.00   0.00
  1953.96800  -1.030  21.8819  28.2272   0.00   0.00   0.00
  1976.40100  -4.210  21.8819  28.1551   0.00   0.00   0.00
  1976.51900  -4.500  21.8819  28.1548   0.00   0.00   0.00
  1979.23300  -0.730  25.3341  31.5984   0.00   0.00   0.00
  2001.80700  -4.380  25.3957  31.5874   0.00   0.00   0.00
  2009.12800  -0.810  25.3957  31.5648   0.00   0.00   0.00
  2009.12800  -4.700  25.3957  31.5648   0.00   0.00   0.00
  2009.13600  -0.970  25.3957  31.5648   0.00   0.00   0.00
  2030.64300  -3.450  20.5525  26.6562   0.00   0.00   0.00
  2032.86100  -4.640  25.3957  31.4928   0.00   0.00   0.00
  2049.90300  -2.800  20.5525  26.5989   0.00   0.00   0.00
  2068.78100  -1.400  25.9789  31.9701   0.00   0.00   0.00
  2069.97800  -1.460  25.9823  31.9701   0.00   0.00   0.00
  2069.97800  -1.750  25.9823  31.9701   0.00   0.00   0.00
  2069.97800  -2.460  25.9823  31.9701   0.00   0.00   0.00
  2071.71000  -1.180  25.9873  31.9701   0.00   0.00   0.00
  2071.71000  -2.700  25.9873  31.9701   0.00   0.00   0.00
  2071.71000  -2.840  25.9873  31.9701   0.00   0.00   0.00
  2071.71000  -4.270  25.9873  31.9701   0.00   0.00   0.00
  2075.02800  -0.690  24.9952  30.9684   0.00   0.00   0.00
  2075.04200  -0.520  24.9953  30.9684   0.00   0.00   0.00
  2075.05200  -1.430  24.9953  30.9684   0.00   0.00   0.00
  2075.08200  -0.360  24.9954  30.9685   0.00   0.00   0.00
  2075.09400  -1.430  24.9954  30.9684   0.00   0.00   0.00
  2075.10300  -2.970  24.9954  30.9684   0.00   0.00   0.00
  2087.70800  -2.500  25.9789  31.9158   0.00   0.00   0.00
  2087.70800  -3.230  25.9789  31.9158   0.00   0.00   0.00
  2087.70800  -4.770  25.9789  31.9158   0.00   0.00   0.00
  2088.92600  -2.330  25.9823  31.9158   0.00   0.00   0.00
  2088.92600  -3.230  25.9823  31.9158   0.00   0.00   0.00
  2090.69000  -2.160  25.9873  31.9158   0.00   0.00   0.00
  2171.55900  -0.500  25.3341  31.0418   0.00   0.00   0.00
  2182.31800  -3.330  25.3957  31.0753   0.00   0.00   0.00
  2194.48000  -4.105  16.0820  21.7301   9.73   0.00   0.00
  2197.39200  -4.015  16.0985  21.7392   9.73   0.00   0.00
  2200.93100  -4.235  16.0985  21.7301   9.73   0.00   0.00
  2202.53600  -4.105  16.0985  21.7260   9.73   0.00   0.00
  2209.95200  -3.535  16.1306  21.7392   9.73   0.00   0.00
  2213.53300  -4.015  16.1306  21.7301   9.73   0.00   0.00
  2218.89700  -1.100  25.9789  31.5648   0.00   0.00   0.00
  2220.27400  -1.410  25.9823  31.5648   0.00   0.00   0.00
  2220.27400  -2.160  25.9823  31.5648   0.00   0.00   0.00
  2220.28400  -1.180  25.9823  31.5648   0.00   0.00   0.00
  2222.03100  -0.500  25.3957  30.9738   0.00   0.00   0.00
  2222.03600  -0.660  25.3957  30.9738   0.00   0.00   0.00
  2222.06200  -4.300  25.3957  30.9737   0.00   0.00   0.00
  2222.21900  -0.870  25.9873  31.5649   0.00   0.00   0.00
  2222.26600  -2.520  25.9873  31.5648   0.00   0.00   0.00
  2222.26600  -3.960  25.9873  31.5648   0.00   0.00   0.00
  2222.27600  -2.420  25.9873  31.5648   0.00   0.00   0.00
  2247.70300  -4.540  25.9789  31.4932   0.00   0.00   0.00
  2247.87900  -3.000  25.9789  31.4928   0.00   0.00   0.00
  2247.98000  -2.260  25.9789  31.4926   0.00   0.00   0.00
  2249.11500  -3.000  25.9823  31.4932   0.00   0.00   0.00
  2249.29200  -2.090  25.9823  31.4928   0.00   0.00   0.00
  2251.16000  -1.930  25.9873  31.4932   0.00   0.00   0.00
  2257.86900  -4.330  25.3957  30.8853   0.00   0.00   0.00
  2306.33000  -3.330  24.9952  30.3694   0.00   0.00   0.00
  2306.36000  -2.150  24.9953  30.3694   0.00   0.00   0.00
  2306.42300  -1.400  24.9954  30.3694   0.00   0.00   0.00
  2306.86000  -2.630  24.9952  30.3682   0.00   0.00   0.00
  2306.88900  -2.150  24.9953  30.3682   0.00   0.00   0.00
  2307.10700  -2.030  24.9952  30.3676   0.00   0.00   0.00
  2307.88800  -1.510  26.5989  31.9695   0.00   0.00   0.00
  2310.15900  -2.330  24.9952  30.3605   0.00   0.00   0.00
  2310.18900  -1.850  24.9953  30.3605   0.00   0.00   0.00
  2331.18800  -3.060  26.5989  31.9158   0.00   0.00   0.00
  2331.18800  -3.540  26.5989  31.9158   0.00   0.00   0.00
  2332.79700  -2.170  26.6562  31.9695   0.00   0.00   0.00
  2356.30600  -2.060  26.6555  31.9158   0.00   0.00   0.00
  2356.30600  -2.800  26.6555  31.9158   0.00   0.00   0.00
  2356.30600  -3.980  26.6555  31.9158   0.00   0.00   0.00
  2356.60500  -2.410  26.6562  31.9158   0.00   0.00   0.00
  2356.60500  -2.890  26.6562  31.9158   0.00   0.00   0.00
  2356.65000  -2.680  26.6563  31.9158   0.00   0.00   0.00
  2449.44900  -0.350  24.9952  30.0554   8.90   0.00   0.00
  2449.45800  -0.180  24.9953  30.0555   8.90   0.00   0.00
  2449.48200  -1.070  24.9953  30.0554   8.90   0.00   0.00
  2449.50500  -0.020  24.9954  30.0555   8.90   0.00   0.00
  2449.53000  -1.070  24.9954  30.0555   8.90   0.00   0.00
  2449.55400  -2.700  24.9954  30.0554   8.90   0.00   0.00
  2462.15300  -1.930  25.3341  30.3682   0.00   0.00   0.00
  2465.91200  -2.240  25.3341  30.3605   0.00   0.00   0.00
  2481.50800  -0.700  25.9789  30.9737   0.00   0.00   0.00
  2483.19100  -1.010  25.9823  30.9738   0.00   0.00   0.00
  2483.19600  -0.790  25.9823  30.9738   0.00   0.00   0.00
  2483.22900  -1.760  25.9823  30.9737   0.00   0.00   0.00
  2484.67400  -1.170  26.5989  31.5874   0.00   0.00   0.00
  2485.62300  -0.480  25.9873  30.9739   0.00   0.00   0.00
  2485.68400  -2.120  25.9873  30.9738   0.00   0.00   0.00
  2485.69000  -2.020  25.9873  30.9738   0.00   0.00   0.00
  2485.72200  -3.570  25.9873  30.9737   0.00   0.00   0.00
  2513.56800  -1.830  26.6562  31.5874   0.00   0.00   0.00
  2525.14800  -4.270  25.9789  30.8874   0.00   0.00   0.00
  2526.24700  -2.720  25.9789  30.8853   0.00   0.00   0.00
  2526.91200  -1.980  25.9789  30.8840   0.00   0.00   0.00
  2526.93000  -2.730  25.9823  30.8874   0.00   0.00   0.00
  2528.03200  -1.820  25.9823  30.8853   0.00   0.00   0.00
  2528.47100  -0.270  25.3341  30.2362   9.00   0.00   0.00
  2529.51200  -1.660  25.9873  30.8874   0.00   0.00   0.00
  2532.69100  -2.650  26.5989  31.4928   0.00   0.00   0.00
  2532.82000  -3.110  26.5989  31.4926   0.00   0.00   0.00
  2541.81800  -1.115  10.2765  15.1528   9.42   0.00   0.00
  2546.09200  -0.520  20.5525  25.4206   9.83   0.00   0.00
  2559.19600   0.730  20.5525  25.3957   9.75   0.00   0.00
  2562.13800  -1.620  26.6555  31.4932   0.00   0.00   0.00
  2562.36600  -2.370  26.6555  31.4928   0.00   0.00   0.00
  2562.49800  -3.550  26.6555  31.4926   0.00   0.00   0.00
  2562.72000  -1.980  26.6562  31.4928   0.00   0.00   0.00
  2562.85100  -2.460  26.6562  31.4926   0.00   0.00   0.00
  2562.90500  -2.250  26.6563  31.4926   0.00   0.00   0.00
  2578.72600  -2.590  25.5628  30.3694   0.00   0.00   0.00
  2579.38800  -3.290  25.5628  30.3682   0.00   0.00   0.00
  2579.69700  -3.290  25.5628  30.3676   0.00   0.00   0.00
  2583.51400  -2.990  25.5628  30.3605   0.00   0.00   0.00
  2655.52000  -0.050  25.3957  30.0633   0.00   0.00   0.00
  2655.54900  -0.230  25.3957  30.0632   0.00   0.00   0.00
  2655.56300  -3.720  25.3957  30.0632   0.00   0.00   0.00
  2697.58000  -2.130  25.7734  30.3682   0.00   0.00   0.00
  2702.09200  -2.430  25.7734  30.3605   0.00   0.00   0.00
  2768.92900  -0.780  26.5989  31.0753   0.00   0.00   0.00
  2798.59300  -1.650  25.3957  29.8247   0.00   0.00   0.00
  2804.86100  -1.450  26.6562  31.0753   0.00   0.00   0.00
  2817.13800  -4.620  25.3957  29.7955   0.00   0.00   0.00
  2830.01600  -1.450  26.5989  30.9787   0.00   0.00   0.00
  2837.33200  -2.090  26.5989  30.9674   0.00   0.00   0.00
  2867.56100  -2.110  26.6562  30.9787   0.00   0.00   0.00
  2874.62600  -1.130  26.6555  30.9674   0.00   0.00   0.00
  2875.07100  -1.440  26.6562  30.9674   0.00   0.00   0.00
  2875.13800  -1.830  26.6563  30.9674   0.00   0.00   0.00
  2891.68900  -2.090  26.5989  30.8853   0.00   0.00   0.00
  2892.55900  -2.530  26.5989  30.8840   0.00   0.00   0.00
  2928.95600  -1.030  26.6555  30.8874   0.00   0.00   0.00
  2930.43700  -1.800  26.6555  30.8853   0.00   0.00   0.00
  2930.89900  -1.400  26.6562  30.8853   0.00   0.00   0.00
  2931.33000  -2.980  26.6555  30.8840   0.00   0.00   0.00
  2931.79200  -1.890  26.6562  30.8840   0.00   0.00   0.00
  2931.86200  -1.670  26.6563  30.8840   0.00   0.00   0.00
  2980.52500  -3.070  17.7232  21.8819   0.00   0.00   0.00
  2980.73900  -3.550  17.7235  21.8819   0.00   0.00   0.00
  3013.09800  -2.380  26.6555  30.7692   9.25   0.00   0.00
  3013.58600  -2.860  26.6562  30.7692   9.27   0.00   0.00
  3032.69100  -2.860  26.6555  30.7427   9.25   0.00   0.00
  3033.18600  -3.080  26.6562  30.7427   9.26   0.00   0.00
  3033.26100  -2.950  26.6563  30.7427   9.25   0.00   0.00
  3034.73100  -0.130  25.9789  30.0632   0.00   0.00   0.00
  3037.25000  -0.430  25.9823  30.0633   0.00   0.00   0.00
  3037.28800  -0.230  25.9823  30.0632   0.00   0.00   0.00
  3037.30600  -1.190  25.9823  30.0632   0.00   0.00   0.00
  3040.75400  -2.950  26.6562  30.7325   9.27   0.00   0.00
  3040.93000   0.090  25.9873  30.0634   0.00   0.00   0.00
  3040.98000  -1.550  25.9873  30.0633   0.00   0.00   0.00
  3041.01800  -1.450  25.9873  30.0632   0.00   0.00   0.00
  3041.03600  -3.000  25.9873  30.0632   0.00   0.00   0.00
  3043.76900  -2.800  24.9952  29.0674   8.58   0.00   0.00
  3043.82000  -1.630  24.9953  29.0674   8.58   0.00   0.00
  3043.93100  -0.880  24.9954  29.0674   8.57   0.00   0.00
  3045.04600  -1.630  24.9952  29.0657   8.64   0.00   0.00
  3045.09700  -1.150  24.9953  29.0657   8.64   0.00   0.00
  3046.28300  -1.500  24.9952  29.0641   8.58   0.00   0.00
  3048.83200  -1.810  24.9952  29.0607   0.00   0.00   0.00
  3048.88300  -1.330  24.9953  29.0607   0.00   0.00   0.00
  3065.56000  -2.990  21.7301  25.7734   0.00   0.00   0.00
  3086.23600  -0.075  17.7229  21.7392   9.49   0.00   0.00
  3086.43600  -0.825  17.7232  21.7392   9.49   0.00   0.00
  3086.66600  -1.995  17.7235  21.7392   9.49   0.00   0.00
  3092.46600  -0.580  27.9620  31.9701   0.00   0.00   0.00
  3092.46600  -1.150  27.9620  31.9701   0.00   0.00   0.00
  3092.46600  -2.960  27.9620  31.9701   0.00   0.00   0.00
  3092.95400  -2.900  27.9620  31.9695   0.00   0.00   0.00
  3093.42400  -0.345  17.7232  21.7301   9.49   0.00   0.00
  3093.65400  -0.825  17.7235  21.7301   9.49   0.00   0.00
  3096.82600  -0.695  17.7235  21.7260   9.49   0.00   0.00
  3126.26300  -0.083  26.8045  30.7692   9.69   0.00   0.00
  3134.94300  -2.990  27.9620  31.9158   0.00   0.00   0.00
  3134.94300  -3.900  27.9620  31.9158   0.00   0.00   0.00
  3135.91800  -0.563  26.8167  30.7692   9.70   0.00   0.00
  3147.36100  -0.563  26.8045  30.7427   9.69   0.00   0.00
  3157.14700  -0.783  26.8167  30.7427   9.70   0.00   0.00
  3161.61000  -0.947  25.3341  29.2545   9.41   0.00   0.00
  3163.29800  -0.653  26.8243  30.7427   9.70   0.00   0.00
  3165.34700  -0.653  26.8167  30.7325   9.70   0.00   0.00
  3185.12100  -0.240  21.8819  25.7734   9.21   0.00   0.00
  3222.96500  -4.130  25.9789  29.8247   0.00   0.00   0.00
  3225.87100  -3.530  25.9823  29.8247   0.00   0.00   0.00
  3230.49600  -0.670  21.7260  25.5628   9.11   0.00   0.00
  3233.95400  -0.200  21.7301  25.5628   9.11   0.00   0.00
  3241.62600   0.020  21.7392  25.5628   9.11   0.00   0.00
  3247.58500  -3.640  25.9789  29.7955   0.00   0.00   0.00
  3250.53400  -2.090  25.9823  29.7955   0.00   0.00   0.00
  3250.79000  -2.090  25.9789  29.7918   0.00   0.00   0.00
  3251.07200  -0.970  28.1548  31.9674   0.00   0.00   0.00
  3251.39200  -0.800  28.1551  31.9674   0.00   0.00   0.00
  3251.39200  -1.700  28.1551  31.9674   0.00   0.00   0.00
  3251.86900  -0.640  28.1557  31.9674   0.00   0.00   0.00
  3251.86900  -1.700  28.1557  31.9674   0.00   0.00   0.00
  3251.86900  -3.250  28.1557  31.9674   0.00   0.00   0.00
  3253.11800  -1.350  25.9789  29.7890   0.00   0.00   0.00
  3253.74600  -1.180  25.9823  29.7918   0.00   0.00   0.00
  3254.80700  -1.020  25.9873  29.7955   0.00   0.00   0.00
  3294.13100  -0.800  28.2272  31.9899   0.00   0.00   0.00
  3321.56700  -1.370  25.3341  29.0657   0.00   0.00   0.00
  3326.07200  -1.670  25.3341  29.0607   0.00   0.00   0.00
  3367.29600  -2.980  21.8819  25.5628   0.00   0.00   0.00
  3418.94300  -2.320  27.9620  31.5874   0.00   0.00   0.00
  3439.26000  -2.190  21.7301  25.3341   0.00   0.00   0.00
  3440.35100  -0.340  27.9620  31.5648   0.00   0.00   0.00
  3440.35100  -2.630  27.9620  31.5648   0.00   0.00   0.00
  3440.37500  -0.910  27.9620  31.5648   0.00   0.00   0.00
  3486.82500   0.237  24.9954  28.5502   9.01   0.00   0.00
  3486.92700   0.077  24.9953  28.5500   9.01   0.00   0.00
  3486.97200  -0.093  24.9952  28.5499   9.01   0.00   0.00
  3487.03900  -0.813  24.9953  28.5499   9.01   0.00   0.00
  3487.07300  -0.813  24.9954  28.5500   9.01   0.00   0.00
  3487.18500  -2.443  24.9954  28.5499   9.01   0.00   0.00
  3510.09000  -3.600  27.9620  31.4932   0.00   0.00   0.00
  3510.51900  -2.690  27.9620  31.4928   0.00   0.00   0.00
  3536.79600  -3.830  25.5628  29.0674   0.00   0.00   0.00
  3538.52100  -4.530  25.5628  29.0657   0.00   0.00   0.00
  3540.19100  -4.530  25.5628  29.0641   0.00   0.00   0.00
  3543.63300  -4.230  25.5628  29.0607   0.00   0.00   0.00
  3569.67200  -0.960  26.5989  30.0712   9.16   0.00   0.00
  3590.46500  -0.240  21.8819  25.3341   9.14   0.00   0.00
  3607.55400  -3.500  28.5541  31.9899   0.00   0.00   0.00
  3607.59900  -3.390  28.5541  31.9899   0.00   0.00   0.00
  3619.43100  -0.700  28.5540  31.9786   0.00   0.00   0.00
  3619.48800  -0.600  28.5541  31.9786   0.00   0.00   0.00
  3619.48800  -2.240  28.5541  31.9786   0.00   0.00   0.00
  3619.48800  -4.350  28.5541  31.9786   0.00   0.00   0.00
  3619.53400  -0.600  28.5541  31.9786   0.00   0.00   0.00
  3619.53400  -2.340  28.5541  31.9786   0.00   0.00   0.00
  3619.53400  -4.920  28.5541  31.9786   0.00   0.00   0.00
  3619.57900  -0.520  28.5541  31.9786   0.00   0.00   0.00
  3619.57900  -2.240  28.5541  31.9786   0.00   0.00   0.00
  3619.57900  -2.350  28.5541  31.9786   0.00   0.00   0.00
  3619.57900  -3.980  28.5541  31.9786   0.00   0.00   0.00
  3620.46000  -1.630  26.5989  30.0225   0.00   0.00   0.00
  3624.00700  -0.700  28.5499  31.9701   0.00   0.00   0.00
  3624.12800  -0.680  28.5500  31.9701   0.00   0.00   0.00
  3624.12800  -1.290  28.5500  31.9701   0.00   0.00   0.00
  3624.12800  -1.790  28.5500  31.9701   0.00   0.00   0.00
  3624.39600  -0.470  28.5502  31.9701   0.00   0.00   0.00
  3624.39600  -2.000  28.5502  31.9701   0.00   0.00   0.00
  3624.39600  -2.140  28.5502  31.9701   0.00   0.00   0.00
  3624.39600  -3.560  28.5502  31.9701   0.00   0.00   0.00
  3624.79800  -4.210  28.5500  31.9695   0.00   0.00   0.00
  3629.61200  -1.680  26.6562  30.0712   0.00   0.00   0.00
  3631.34200  -2.850  28.5540  31.9674   0.00   0.00   0.00
  3631.34200  -3.910  28.5540  31.9674   0.00   0.00   0.00
  3631.40000  -2.980  28.5541  31.9674   0.00   0.00   0.00
  3631.40000  -4.160  28.5541  31.9674   0.00   0.00   0.00
  3631.44700  -3.080  28.5541  31.9674   0.00   0.00   0.00
  3631.44700  -4.260  28.5541  31.9674   0.00   0.00   0.00
  3631.49100  -2.610  28.5541  31.9674   0.00   0.00   0.00
  3638.52400  -0.740  28.1548  31.5614   0.00   0.00   0.00
  3638.89400  -0.570  28.1551  31.5614   0.00   0.00   0.00
  3638.92400  -1.470  28.1551  31.5614   0.00   0.00   0.00
  3639.44100  -0.410  28.1557  31.5615   0.00   0.00   0.00
  3639.49100  -1.470  28.1557  31.5614   0.00   0.00   0.00
  3639.52200  -3.010  28.1557  31.5614   0.00   0.00   0.00
  3676.73100  -0.590  28.2272  31.5984   0.00   0.00   0.00
  3681.40200  -0.690  26.6555  30.0225   8.78   0.00   0.00
  3682.13200  -0.910  26.6562  30.0225   8.82   0.00   0.00
  3682.24200  -1.380  26.6563  30.0225   8.78   0.00   0.00
  3682.47800  -1.970  28.5499  31.9158   0.00   0.00   0.00
  3682.47800  -2.700  28.5499  31.9158   0.00   0.00   0.00
  3682.47800  -4.240  28.5499  31.9158   0.00   0.00   0.00
  3682.60300  -1.820  28.5500  31.9158   0.00   0.00   0.00
  3682.60300  -2.730  28.5500  31.9158   0.00   0.00   0.00
  3682.87900  -1.640  28.5502  31.9158   0.00   0.00   0.00
  3764.79700  -2.050  25.7734  29.0657   0.00   0.00   0.00
  3770.58500  -2.360  25.7734  29.0607   0.00   0.00   0.00
  3791.43900  -0.093  21.7260  24.9952   8.72   0.00   0.00
  3796.12400   0.257  21.7301  24.9953   8.72   0.00   0.00
  3796.20300  -0.223  21.7301  24.9952   8.72   0.00   0.00
  3806.52600   0.527  21.7392  24.9954   8.72   0.00   0.00
  3806.70000  -0.223  21.7392  24.9953   8.72   0.00   0.00
  3806.77900  -1.393  21.7392  24.9952   8.72   0.00   0.00
  3842.46200  -0.850  26.5989  29.8247   0.00   0.00   0.00
  3851.75100  -1.938  26.8045  30.0225   9.58   0.00   0.00
  3854.28000  -0.410  25.3341  28.5500   0.00   0.00   0.00
  3866.41700  -2.158  26.8167  30.0225   9.58   0.00   0.00
  3875.64600  -2.628  26.8243  30.0225   9.58   0.00   0.00
  3882.07700  -2.200  26.5989  29.7918   0.00   0.00   0.00
  3885.39600  -2.360  26.5989  29.7890   0.00   0.00   0.00
  3911.17900  -3.670  26.6555  29.8247   0.00   0.00   0.00
  3912.00200  -1.660  26.6562  29.8247   0.00   0.00   0.00
  3924.46800   0.690  25.3957  28.5541   0.00   0.00   0.00
  3924.52200   0.480  25.3957  28.5541   0.00   0.00   0.00
  3924.59000  -2.700  25.3957  28.5540   0.00   0.00   0.00
  3947.49400  -0.850  26.6555  29.7955   0.00   0.00   0.00
  3952.23000  -1.630  26.6555  29.7918   0.00   0.00   0.00
  3953.07100  -1.190  26.6562  29.7918   0.00   0.00   0.00
  3955.67100  -2.810  26.6555  29.7890   0.00   0.00   0.00
  3956.51300  -1.720  26.6562  29.7890   0.00   0.00   0.00
  3956.64000  -1.510  26.6563  29.7890   0.00   0.00   0.00
  3981.17800  -2.370  21.8819  24.9953   0.00   0.00   0.00
  3981.26500  -2.840  21.8819  24.9952   0.00   0.00   0.00
  3981.31600  -1.610  27.9620  31.0753   0.00   0.00   0.00
  4071.54600  -3.280  28.5541  31.5984   0.00   0.00   0.00
  4071.60400  -3.170  28.5541  31.5984   0.00   0.00   0.00
  4080.79200  -3.600  28.5500  31.5874   0.00   0.00   0.00
  4101.71200  -0.340  28.5540  31.5759   0.00   0.00   0.00
  4101.78700  -0.250  28.5541  31.5759   0.00   0.00   0.00
  4101.78700  -1.890  28.5541  31.5759   0.00   0.00   0.00
  4101.78700  -4.000  28.5541  31.5759   0.00   0.00   0.00
  4101.84500  -0.240  28.5541  31.5759   0.00   0.00   0.00
  4101.84500  -1.990  28.5541  31.5759   0.00   0.00   0.00
  4101.84500  -4.560  28.5541  31.5759   0.00   0.00   0.00
  4101.90300  -0.160  28.5541  31.5759   0.00   0.00   0.00
  4101.90300  -1.880  28.5541  31.5759   0.00   0.00   0.00
  4101.90300  -1.990  28.5541  31.5759   0.00   0.00   0.00
  4101.90300  -3.630  28.5541  31.5759   0.00   0.00   0.00
  4102.42300  -0.149  25.3341  28.3555   9.81   0.00   0.00
  4111.17200  -0.390  28.5499  31.5648   0.00   0.00   0.00
  4111.32800  -0.900  28.5500  31.5648   0.00   0.00   0.00
  4111.32800  -1.470  28.5500  31.5648   0.00   0.00   0.00
  4111.36200  -0.390  28.5500  31.5648   0.00   0.00   0.00
  4111.51200  -0.150  28.5502  31.5649   0.00   0.00   0.00
  4111.67300  -1.800  28.5502  31.5648   0.00   0.00   0.00
  4111.67300  -3.250  28.5502  31.5648   0.00   0.00   0.00
  4111.70700  -1.700  28.5502  31.5648   0.00   0.00   0.00
  4115.48700  -0.010  27.9620  30.9738   0.00   0.00   0.00
  4115.50200  -0.670  27.9620  30.9738   0.00   0.00   0.00
  4115.59200  -2.180  27.9620  30.9737   0.00   0.00   0.00
  4121.52100  -3.580  28.5540  31.5614   0.00   0.00   0.00
  4121.53200  -3.840  28.5541  31.5615   0.00   0.00   0.00
  4121.56100  -2.520  28.5540  31.5614   0.00   0.00   0.00
  4121.59100  -3.940  28.5541  31.5615   0.00   0.00   0.00
  4121.59600  -2.660  28.5541  31.5614   0.00   0.00   0.00
  4121.64900  -2.290  28.5541  31.5615   0.00   0.00   0.00
  4121.65600  -2.760  28.5541  31.5614   0.00   0.00   0.00
  4178.01800  -1.060  24.9953  27.9620   0.00   0.00   0.00
  4178.22700  -1.960  24.9954  27.9620   0.00   0.00   0.00
  4211.15300  -3.950  28.5499  31.4932   0.00   0.00   0.00
  4211.31600  -2.430  28.5500  31.4932   0.00   0.00   0.00
  4211.67800  -1.350  28.5502  31.4932   0.00   0.00   0.00
  4211.77100  -2.410  28.5499  31.4928   0.00   0.00   0.00
  4211.93300  -1.530  28.5500  31.4928   0.00   0.00   0.00
  4212.12500  -1.680  28.5499  31.4926   0.00   0.00   0.00
  4237.02700  -3.200  27.9620  30.8874   0.00   0.00   0.00
  4240.12500  -2.270  27.9620  30.8853   0.00   0.00   0.00
  4261.21900  -1.610  29.0607  31.9695   0.00   0.00   0.00
  4268.63600  -1.310  29.0657  31.9695   0.00   0.00   0.00
  4293.95400  -4.820  28.1551  31.0418   0.00   0.00   0.00
  4325.88900  -2.650  19.0165  21.8819   0.00   0.00   0.00
  4338.50000  -0.900  19.0249  21.8819   9.51   0.00   0.00
  4341.32600  -2.070  29.0607  31.9158   0.00   0.00   0.00
  4341.32600  -2.540  29.0607  31.9158   0.00   0.00   0.00
  4341.40000  -0.300  29.2545  32.1096   9.31   0.00   0.00
  4346.50400  -2.240  29.0641  31.9158   0.00   0.00   0.00
  4349.02400  -2.370  29.0657  31.9158   0.00   0.00   0.00
  4349.02400  -2.840  29.0657  31.9158   0.00   0.00   0.00
  4351.63300  -1.620  29.0674  31.9158   0.00   0.00   0.00
  4351.63300  -2.370  29.0674  31.9158   0.00   0.00   0.00
  4351.63300  -3.540  29.0674  31.9158   0.00   0.00   0.00
  4377.62300  -0.910  25.3957  28.2272   9.00   0.00   0.00
  4403.83000  -0.370  28.2272  31.0418   0.00   0.00   0.00
  4405.35200  -0.430  28.1548  30.9684   0.00   0.00   0.00
  4405.89500  -0.260  28.1551  30.9684   0.00   0.00   0.00
  4405.93700  -1.160  28.1551  30.9684   0.00   0.00   0.00
  4406.71600  -0.100  28.1557  30.9685   0.00   0.00   0.00
  4406.77100  -1.160  28.1557  30.9684   0.00   0.00   0.00
  4406.81400  -2.710  28.1557  30.9684   0.00   0.00   0.00
  4468.44700  -0.850  28.0703  30.8442   9.37   0.00   0.00
  4490.97000  -3.730  25.3957  28.1557   0.00   0.00   0.00
  4491.88000  -2.870  25.3957  28.1551   0.00   0.00   0.00
  4494.04300  -0.380  28.0861  30.8442   9.37   0.00   0.00
  4521.65200  -4.720  28.2272  30.9684   0.00   0.00   0.00
  4552.62200   0.181  19.0165  21.7392   9.08   0.00   0.00
  4553.99700  -0.160  28.1224  30.8442   9.37   0.00   0.00
  4567.84000  -0.039  19.0165  21.7301   9.08   0.00   0.00
  4574.75700  -0.509  19.0165  21.7260   9.08   0.00   0.00
  4619.64600  -0.280  28.0861  30.7692   9.58   0.00   0.00
  4638.27800  -0.370  28.0703  30.7427   9.58   0.00   0.00
  4665.86200  -0.500  28.0861  30.7427   9.58   0.00   0.00
  4683.02100   0.200  28.1224  30.7692   9.58   0.00   0.00
  4683.79400  -0.370  28.0861  30.7325   9.58   0.00   0.00
  4716.65400   0.440  25.3341  27.9620   9.12   0.00   0.00
  4730.52100  -0.280  28.1224  30.7427   9.58   0.00   0.00
  4813.33300   0.850  25.9789  28.5540   0.00   0.00   0.00
  4819.63100   0.570  25.9823  28.5541   0.00   0.00   0.00
  4819.71200   0.750  25.9823  28.5541   0.00   0.00   0.00
  4819.81400  -0.210  25.9823  28.5540   0.00   0.00   0.00
  4828.95100   1.090  25.9873  28.5541   0.00   0.00   0.00
  4829.03000  -0.560  25.9873  28.5541   0.00   0.00   0.00
  4829.11100  -0.460  25.9873  28.5541   0.00   0.00   0.00
  4829.21400  -2.000  25.9873  28.5540   0.00   0.00   0.00
  4905.61600  -1.190  29.0607  31.5874   0.00   0.00   0.00
  4908.30900  -2.880  28.5500  31.0753   0.00   0.00   0.00
  4915.44800  -0.890  29.0657  31.5874   0.00   0.00   0.00
  4982.52200  -3.130  28.5541  31.0418   0.00   0.00   0.00
  4982.60900  -3.020  28.5541  31.0418   0.00   0.00   0.00
  5091.25000   0.170  28.5540  30.9886   0.00   0.00   0.00
  5091.36400   0.270  28.5541  30.9886   0.00   0.00   0.00
  5091.36400  -1.370  28.5541  30.9886   0.00   0.00   0.00
  5091.36400  -3.480  28.5541  30.9886   0.00   0.00   0.00
  5091.45500   0.270  28.5541  30.9886   0.00   0.00   0.00
  5091.45500  -1.480  28.5541  30.9886   0.00   0.00   0.00
  5091.45500  -4.050  28.5541  30.9886   0.00   0.00   0.00
  5091.54300   0.350  28.5541  30.9886   0.00   0.00   0.00
  5091.54300  -1.370  28.5541  30.9886   0.00   0.00   0.00
  5091.54300  -1.480  28.5541  30.9886   0.00   0.00   0.00
  5091.54300  -3.120  28.5541  30.9886   0.00   0.00   0.00
  5096.36600  -1.540  29.0607  31.4928   0.00   0.00   0.00
  5096.88500  -2.020  29.0607  31.4926   0.00   0.00   0.00
  5104.02300  -1.720  29.0641  31.4926   0.00   0.00   0.00
  5106.97700  -1.860  29.0657  31.4928   0.00   0.00   0.00
  5107.49900  -2.330  29.0657  31.4926   0.00   0.00   0.00
  5109.66600  -1.100  29.0674  31.4932   0.00   0.00   0.00
  5110.57500  -1.850  29.0674  31.4928   0.00   0.00   0.00
  5111.09700  -3.030  29.0674  31.4926   0.00   0.00   0.00
  5113.76400   0.050  28.5499  30.9737   0.00   0.00   0.00
  5113.84200  -0.420  28.5500  30.9738   0.00   0.00   0.00
  5113.86600   0.030  28.5500  30.9738   0.00   0.00   0.00
  5114.00500  -1.030  28.5500  30.9737   0.00   0.00   0.00
  5114.11700   0.280  28.5502  30.9739   0.00   0.00   0.00
  5114.37600  -1.360  28.5502  30.9738   0.00   0.00   0.00
  5114.40000  -1.260  28.5502  30.9738   0.00   0.00   0.00
  5114.53900  -2.810  28.5502  30.9737   0.00   0.00   0.00
  5133.68500  -4.910  28.5540  30.9685   0.00   0.00   0.00
  5133.75900  -3.110  28.5540  30.9684   0.00   0.00   0.00
  5133.80100  -3.370  28.5541  30.9685   0.00   0.00   0.00
  5133.81700  -2.060  28.5540  30.9684   0.00   0.00   0.00
  5133.87500  -2.190  28.5541  30.9684   0.00   0.00   0.00
  5133.89300  -3.470  28.5541  30.9685   0.00   0.00   0.00
  5133.96700  -2.290  28.5541  30.9684   0.00   0.00   0.00
  5133.98300  -1.820  28.5541  30.9685   0.00   0.00   0.00
  5302.59700  -3.580  28.5499  30.8874   0.00   0.00   0.00
  5302.85600  -2.060  28.5500  30.8874   0.00   0.00   0.00
  5303.42900  -0.970  28.5502  30.8874   0.00   0.00   0.00
  5307.44900  -2.020  28.5499  30.8853   0.00   0.00   0.00
  5307.70900  -1.140  28.5500  30.8853   0.00   0.00   0.00
  5310.38200  -1.290  28.5499  30.8840   0.00   0.00   0.00
  5451.45500   0.130  28.0861  30.3598   9.39   0.00   0.00
  5451.96000  -0.220  28.0703  30.3438   9.40   0.00   0.00
  5473.04200   0.400  28.1224  30.3872   9.39   0.00   0.00
  5490.11100  -0.350  28.0861  30.3438   9.39   0.00   0.00
  5521.57000  -3.990  25.9823  28.2272   0.00   0.00   0.00
  5539.92600  -0.350  28.1224  30.3598   9.39   0.00   0.00
  5579.85100  -1.520  28.1224  30.3438   9.40   0.00   0.00
  5596.88600  -2.610  28.1548  30.3694   8.35   0.00   0.00
  5597.83200  -1.440  28.1551  30.3694   8.36   0.00   0.00
  5599.24600  -0.690  28.1557  30.3694   8.33   0.00   0.00
  5600.00500  -1.440  28.1548  30.3682   8.43   0.00   0.00
  5600.95300  -0.960  28.1551  30.3682   8.43   0.00   0.00
  5601.46100  -1.310  28.1548  30.3676   8.35   0.00   0.00
  5619.48700  -1.610  28.1548  30.3605   0.00   0.00   0.00
  5620.44100  -1.130  28.1551  30.3605   0.00   0.00   0.00
  5638.88200  -2.770  29.7918  31.9899   0.00   0.00   0.00
  5690.22600  -0.850  29.7890  31.9674   0.00   0.00   0.00
  5694.05000  -2.880  25.9789  28.1557   9.02   0.00   0.00
  5695.51300  -1.250  25.9789  28.1551   9.03   0.00   0.00
  5696.49300  -0.530  25.9789  28.1548   9.03   0.00   0.00
  5697.36000  -0.680  29.7918  31.9674   0.00   0.00   0.00
  5697.36000  -1.580  29.7918  31.9674   0.00   0.00   0.00
  5703.12300  -1.250  25.9823  28.1557   9.02   0.00   0.00
  5704.59000  -0.360  25.9823  28.1551   9.03   0.00   0.00
  5707.23200  -0.500  29.7955  31.9674   0.00   0.00   0.00
  5707.23200  -1.570  29.7955  31.9674   0.00   0.00   0.00
  5707.23200  -3.110  29.7955  31.9674   0.00   0.00   0.00
  5716.28700  -0.200  25.9873  28.1557   9.02   0.00   0.00
  5724.60800  -0.730  29.8247  31.9899   0.00   0.00   0.00
  5739.73400  -0.160  19.7223  21.8819   9.09   0.00   0.00
  5784.88700  -2.730  29.8247  31.9674   0.00   0.00   0.00
  5784.88700  -3.630  29.8247  31.9674   0.00   0.00   0.00
  5789.36300  -1.080  28.2272  30.3682   0.00   0.00   0.00
  5810.18700  -0.920  28.2272  30.3605   8.48   0.00   0.00
  5898.78700   0.490  27.9620  30.0633   0.00   0.00   0.00
  5898.93000  -0.540  27.9620  30.0632   0.00   0.00   0.00
  5898.99900  -1.410  27.9620  30.0632   0.00   0.00   0.00
  5956.30200  -4.760  28.1551  30.2362   0.00   0.00   0.00
  6152.55600  -0.700  29.0607  31.0753   0.00   0.00   0.00
  6168.02900  -0.390  29.0657  31.0753   0.00   0.00   0.00
  6169.83300  -0.300  28.2272  30.2362   8.70   0.00   0.00
  6173.61300  -2.760  19.7223  21.7301   0.00   0.00   0.00
  6314.46000  -0.130  26.5989  28.5619   9.22   0.00   0.00
  6433.43100  -2.660  30.0632  31.9899   0.00   0.00   0.00
  6433.60100  -2.560  30.0633  31.9899   0.00   0.00   0.00
  6462.49700  -1.270  29.0607  30.9787   0.00   0.00   0.00
  6471.39900  -0.170  30.0632  31.9786   0.00   0.00   0.00
  6471.48300  -0.070  30.0632  31.9786   0.00   0.00   0.00
  6471.48300  -1.710  30.0632  31.9786   0.00   0.00   0.00
  6471.48300  -3.710  30.0632  31.9786   0.00   0.00   0.00
  6471.65500  -0.070  30.0633  31.9786   0.00   0.00   0.00
  6471.65500  -1.810  30.0633  31.9786   0.00   0.00   0.00
  6471.65500  -4.630  30.0633  31.9786   0.00   0.00   0.00
  6471.88100   0.010  30.0634  31.9786   0.00   0.00   0.00
  6471.88100  -1.710  30.0634  31.9786   0.00   0.00   0.00
  6471.88100  -1.810  30.0634  31.9786   0.00   0.00   0.00
  6471.88100  -3.450  30.0634  31.9786   0.00   0.00   0.00
  6473.75400  -0.320  30.0554  31.9701   0.00   0.00   0.00
  6473.91800  -0.440  30.0555  31.9701   0.00   0.00   0.00
  6473.91800  -0.580  30.0555  31.9701   0.00   0.00   0.00
  6473.91800  -1.370  30.0555  31.9701   0.00   0.00   0.00
  6474.09800  -0.080  30.0555  31.9701   0.00   0.00   0.00
  6474.09800  -1.610  30.0555  31.9701   0.00   0.00   0.00
  6474.09800  -1.750  30.0555  31.9701   0.00   0.00   0.00
  6474.09800  -3.170  30.0555  31.9701   0.00   0.00   0.00
  6479.56900  -0.970  29.0657  30.9787   0.00   0.00   0.00
  6500.76800  -0.960  29.0607  30.9674   0.00   0.00   0.00
  6504.46400  -0.880  26.6562  28.5619   0.00   0.00   0.00
  6509.57600  -2.050  30.0632  31.9674   0.00   0.00   0.00
  6509.57600  -3.100  30.0632  31.9674   0.00   0.00   0.00
  6509.57600  -4.900  30.0632  31.9674   0.00   0.00   0.00
  6509.66100  -2.180  30.0632  31.9674   0.00   0.00   0.00
  6509.66100  -3.360  30.0632  31.9674   0.00   0.00   0.00
  6509.83400  -2.280  30.0633  31.9674   0.00   0.00   0.00
  6509.83400  -3.460  30.0633  31.9674   0.00   0.00   0.00
  6510.06300  -1.810  30.0634  31.9674   0.00   0.00   0.00
  6512.38400  -1.260  29.0641  30.9674   0.00   0.00   0.00
  6518.04300  -1.260  29.0657  30.9674   0.00   0.00   0.00
  6521.48700   0.010  28.1548  30.0554   8.82   0.00   0.00
  6522.60600   0.180  28.1551  30.0555   8.83   0.00   0.00
  6522.77200  -0.710  28.1551  30.0554   8.83   0.00   0.00
  6523.90500  -0.560  29.0674  30.9674   0.00   0.00   0.00
  6524.34300   0.340  28.1557  30.0555   8.82   0.00   0.00
  6524.52600  -0.710  28.1557  30.0555   8.82   0.00   0.00
  6524.69200  -2.340  28.1557  30.0554   8.82   0.00   0.00
  6535.16400  -0.110  30.0838  31.9804   0.00   0.00   0.00
  6535.16400  -0.170  30.0838  31.9804   0.00   0.00   0.00
  6535.16400  -0.180  30.0838  31.9804   0.00   0.00   0.00
  6535.16400  -0.260  30.0838  31.9804   0.00   0.00   0.00
  6535.16400  -1.980  30.0838  31.9804   0.00   0.00   0.00
  6535.16400  -1.980  30.0838  31.9804   0.00   0.00   0.00
  6535.16400  -2.070  30.0838  31.9804   0.00   0.00   0.00
  6535.16400  -2.080  30.0838  31.9804   0.00   0.00   0.00
  6535.16400  -3.630  30.0838  31.9804   0.00   0.00   0.00
  6535.16400  -3.880  30.0838  31.9804   0.00   0.00   0.00
  6535.16400  -4.840  30.0838  31.9804   0.00   0.00   0.00
  6570.98300  -2.290  30.0838  31.9701   0.00   0.00   0.00
  6570.98300  -2.370  30.0838  31.9701   0.00   0.00   0.00
  6570.98300  -2.370  30.0838  31.9701   0.00   0.00   0.00
  6570.98300  -2.470  30.0838  31.9701   0.00   0.00   0.00
  6570.98300  -4.000  30.0838  31.9701   0.00   0.00   0.00
  6570.98300  -4.010  30.0838  31.9701   0.00   0.00   0.00
  6570.98300  -4.120  30.0838  31.9701   0.00   0.00   0.00
  6570.98300  -4.140  30.0838  31.9701   0.00   0.00   0.00
  6624.62700  -0.760  26.5989  28.4699   0.00   0.00   0.00
  6654.42700  -1.370  27.9620  29.8247   0.00   0.00   0.00
  6662.73000  -1.430  30.0554  31.9158   0.00   0.00   0.00
  6662.73000  -2.160  30.0554  31.9158   0.00   0.00   0.00
  6662.73000  -3.710  30.0554  31.9158   0.00   0.00   0.00
  6662.90300  -1.260  30.0555  31.9158   0.00   0.00   0.00
  6662.90300  -2.160  30.0555  31.9158   0.00   0.00   0.00
  6663.09400  -1.100  30.0555  31.9158   0.00   0.00   0.00
  6760.23600  -2.080  27.9620  29.7955   0.00   0.00   0.00
  6774.13900  -1.220  27.9620  29.7918   0.00   0.00   0.00
  6779.54600  -4.260  28.2272  30.0555   0.00   0.00   0.00
  6793.33000  -0.800  29.0607  30.8853   0.00   0.00   0.00
  6798.13400  -1.290  29.0607  30.8840   0.00   0.00   0.00
  6810.59200  -0.350  29.0674  30.8874   0.00   0.00   0.00
  6810.83800  -0.990  29.0641  30.8840   0.00   0.00   0.00
  6812.19800  -1.130  29.0657  30.8853   0.00   0.00   0.00
  6817.02900  -1.590  29.0657  30.8840   0.00   0.00   0.00
  6818.60000  -1.110  29.0674  30.8853   0.00   0.00   0.00
  6823.44100  -2.290  29.0674  30.8840   0.00   0.00   0.00
  6831.55400   0.190  26.6555  28.4699   8.92   0.00   0.00
  6834.06600  -0.030  26.6562  28.4699   8.95   0.00   0.00
  6834.44500  -0.500  26.6563  28.4699   8.92   0.00   0.00
  6860.98800  -2.570  29.7918  31.5984   0.00   0.00   0.00
  6862.04300  -2.060  28.5619  30.3682   0.00   0.00   0.00
  6891.31800  -2.370  28.5619  30.3605   0.00   0.00   0.00
  6988.31800  -0.520  29.8247  31.5984   0.00   0.00   0.00
  6993.64600  -0.580  29.7890  31.5614   0.00   0.00   0.00
  7004.31300  -0.410  29.7918  31.5614   0.00   0.00   0.00
  7004.42600  -1.310  29.7918  31.5614   0.00   0.00   0.00
  7019.05200  -0.230  29.7955  31.5615   0.00   0.00   0.00
  7019.23900  -1.300  29.7955  31.5614   0.00   0.00   0.00
  7019.35300  -2.840  29.7955  31.5614   0.00   0.00   0.00
  7137.07100  -2.470  29.8247  31.5614   0.00   0.00   0.00
  7137.18800  -3.360  29.8247  31.5614   0.00   0.00   0.00
  7148.49600  -0.580  30.2362  31.9701   0.00   0.00   0.00
  7148.49600  -0.720  30.2362  31.9701   0.00   0.00   0.00
  7151.10500  -1.150  30.2362  31.9695   0.00   0.00   0.00
  7368.88300  -4.870  28.5541  30.2362   0.00   0.00   0.00
  7369.07300  -4.750  28.5541  30.2362   0.00   0.00   0.00
  7442.33100  -1.146  26.8045  28.4699   9.60   0.00   0.00
  7461.89600  -0.260  24.9952  26.6563   8.70   0.00   0.00
  7462.34700  -0.390  24.9952  26.6562   8.75   0.00   0.00
  7462.65400   0.090  24.9953  26.6562   8.75   0.00   0.00
  7465.34500  -1.560  24.9952  26.6555   8.70   0.00   0.00
  7465.65200  -0.390  24.9953  26.6555   8.70   0.00   0.00
  7466.32100   0.360  24.9954  26.6555   8.70   0.00   0.00
  7497.27900  -1.366  26.8167  28.4699   9.60   0.00   0.00
  7532.05800  -1.836  26.8243  28.4699   9.61   0.00   0.00
  7612.35700   0.660  26.5989  28.2272   9.11   0.00   0.00
  7703.80300  -1.180  30.3605  31.9695   0.00   0.00   0.00
  7729.17000  -1.150  24.9952  26.5989   0.00   0.00   0.00
  7729.49900  -0.680  24.9953  26.5989   0.00   0.00   0.00
  7740.72100  -0.880  30.3682  31.9695   0.00   0.00   0.00
  7886.86600  -4.310  26.6555  28.2272   0.00   0.00   0.00
  7890.21500  -0.110  26.6562  28.2272   0.00   0.00   0.00
  7964.64100  -0.200  26.5989  28.1551   0.00   0.00   0.00
  7966.55900  -0.660  26.5989  28.1548   0.00   0.00   0.00
  7969.66400  -1.460  30.3605  31.9158   0.00   0.00   0.00
  7969.66400  -1.940  30.3605  31.9158   0.00   0.00   0.00
  8006.20400  -1.640  30.3676  31.9158   0.00   0.00   0.00
  8009.18000  -1.770  30.3682  31.9158   0.00   0.00   0.00
  8009.18000  -2.250  30.3682  31.9158   0.00   0.00   0.00
  8015.57000  -1.020  30.3694  31.9158   0.00   0.00   0.00
  8015.57000  -1.770  30.3694  31.9158   0.00   0.00   0.00
  8015.57000  -2.940  30.3694  31.9158   0.00   0.00   0.00
  8074.30700  -2.320  30.0632  31.5984   0.00   0.00   0.00
  8074.57400  -2.220  30.0633  31.5984   0.00   0.00   0.00
  8102.70800   1.060  28.5540  30.0838   0.00   0.00   0.00
  8102.99700  -0.480  28.5541  30.0838   0.00   0.00   0.00
  8102.99700   1.160  28.5541  30.0838   0.00   0.00   0.00
  8102.99700  -2.590  28.5541  30.0838   0.00   0.00   0.00
  8103.22700  -0.580  28.5541  30.0838   0.00   0.00   0.00
  8103.22700   1.160  28.5541  30.0838   0.00   0.00   0.00
  8103.22700  -3.160  28.5541  30.0838   0.00   0.00   0.00
  8103.45100  -0.480  28.5541  30.0838   0.00   0.00   0.00
  8103.45100  -0.590  28.5541  30.0838   0.00   0.00   0.00
  8103.45100   1.240  28.5541  30.0838   0.00   0.00   0.00
  8103.45100  -2.220  28.5541  30.0838   0.00   0.00   0.00
  8190.46700   0.770  28.5499  30.0632   0.00   0.00   0.00
  8190.67500   0.380  28.5500  30.0633   0.00   0.00   0.00
  8190.95000   0.700  28.5500  30.0632   0.00   0.00   0.00
  8191.08500  -0.310  28.5500  30.0632   0.00   0.00   0.00
  8191.68200   1.000  28.5502  30.0634   0.00   0.00   0.00
  8192.04500  -0.640  28.5502  30.0633   0.00   0.00   0.00
  8192.32000  -0.540  28.5502  30.0632   0.00   0.00   0.00
  8192.45400  -2.090  28.5502  30.0632   0.00   0.00   0.00
  8193.97100   0.280  30.0632  31.5759   0.00   0.00   0.00
  8194.10600   0.380  30.0632  31.5759   0.00   0.00   0.00
  8194.10600  -1.270  30.0632  31.5759   0.00   0.00   0.00
  8194.10600  -3.270  30.0632  31.5759   0.00   0.00   0.00
  8194.38100   0.380  30.0633  31.5759   0.00   0.00   0.00
  8194.38100  -1.370  30.0633  31.5759   0.00   0.00   0.00
  8194.38100  -4.180  30.0633  31.5759   0.00   0.00   0.00
  8194.74400   0.460  30.0634  31.5759   0.00   0.00   0.00
  8194.74400  -1.260  30.0634  31.5759   0.00   0.00   0.00
  8194.74400  -1.370  30.0634  31.5759   0.00   0.00   0.00
  8194.74400  -3.010  30.0634  31.5759   0.00   0.00   0.00
  8211.93600   0.320  30.0555  31.5649   0.00   0.00   0.00
  8212.02300   0.090  30.0554  31.5648   0.00   0.00   0.00
  8212.28600  -0.150  30.0555  31.5648   0.00   0.00   0.00
  8212.28600  -0.970  30.0555  31.5648   0.00   0.00   0.00
  8212.42100  -0.050  30.0555  31.5648   0.00   0.00   0.00
  8212.57600  -1.330  30.0555  31.5648   0.00   0.00   0.00
  8212.57600  -2.770  30.0555  31.5648   0.00   0.00   0.00
  8212.71100  -1.230  30.0555  31.5648   0.00   0.00   0.00
  8255.04200  -4.130  28.5540  30.0555   0.00   0.00   0.00
  8255.33500  -2.330  28.5540  30.0555   0.00   0.00   0.00
  8255.34200  -2.590  28.5541  30.0555   0.00   0.00   0.00
  8255.58100  -2.690  28.5541  30.0555   0.00   0.00   0.00
  8255.60100  -1.280  28.5540  30.0554   0.00   0.00   0.00
  8255.63500  -1.410  28.5541  30.0555   0.00   0.00   0.00
  8255.81300  -1.040  28.5541  30.0555   0.00   0.00   0.00
  8255.87400  -1.510  28.5541  30.0555   0.00   0.00   0.00
  8262.56700   0.830  26.6555  28.1557   8.57   0.00   0.00
  8265.64800   0.080  26.6555  28.1551   8.58   0.00   0.00
  8267.71300  -1.090  26.6555  28.1548   8.58   0.00   0.00
  8269.32700   0.560  26.6562  28.1551   8.64   0.00   0.00
  8271.39300   0.080  26.6562  28.1548   8.64   0.00   0.00
  8271.94700   0.210  26.6563  28.1548   8.58   0.00   0.00
  8273.14500  -4.460  30.0632  31.5615   0.00   0.00   0.00
  8273.28200  -2.910  30.0632  31.5615   0.00   0.00   0.00
  8273.40500  -2.660  30.0632  31.5614   0.00   0.00   0.00
  8273.54200  -1.740  30.0632  31.5614   0.00   0.00   0.00
  8273.56300  -1.600  30.0632  31.5614   0.00   0.00   0.00
  8273.56300  -3.010  30.0633  31.5615   0.00   0.00   0.00
  8273.82300  -1.840  30.0633  31.5614   0.00   0.00   0.00
  8273.93300  -1.370  30.0634  31.5615   0.00   0.00   0.00
  8292.61400   0.300  30.0838  31.5785   0.00   0.00   0.00
  8292.61400   0.380  30.0838  31.5785   0.00   0.00   0.00
  8292.61400   0.380  30.0838  31.5785   0.00   0.00   0.00
  8292.61400   0.450  30.0838  31.5785   0.00   0.00   0.00
  8292.61400  -1.420  30.0838  31.5785   0.00   0.00   0.00
  8292.61400  -1.430  30.0838  31.5785   0.00   0.00   0.00
  8292.61400  -1.520  30.0838  31.5785   0.00   0.00   0.00
  8292.61400  -1.530  30.0838  31.5785   0.00   0.00   0.00
  8292.61400  -3.080  30.0838  31.5785   0.00   0.00   0.00
  8292.61400  -3.330  30.0838  31.5785   0.00   0.00   0.00
  8292.61400  -4.290  30.0838  31.5785   0.00   0.00   0.00
  8341.95800   0.140  29.2545  30.7404   9.28   0.00   0.00
  8368.44400  -1.790  30.0838  31.5649   0.00   0.00   0.00
  8368.44400  -3.510  30.0838  31.5649   0.00   0.00   0.00
  8368.44400  -3.620  30.0838  31.5649   0.00   0.00   0.00
  8369.10900  -1.870  30.0838  31.5648   0.00   0.00   0.00
  8369.10900  -1.970  30.0838  31.5648   0.00   0.00   0.00
  8369.10900  -3.620  30.0838  31.5648   0.00   0.00   0.00
  8369.24900  -1.880  30.0838  31.5648   0.00   0.00   0.00
  8369.24900  -3.520  30.0838  31.5648   0.00   0.00   0.00
  8620.84900  -3.290  30.0554  31.4932   0.00   0.00   0.00
  8621.13900  -1.740  30.0555  31.4932   0.00   0.00   0.00
  8621.45900  -0.680  30.0555  31.4932   0.00   0.00   0.00
  8623.43700  -1.740  30.0554  31.4928   0.00   0.00   0.00
  8623.72700  -0.840  30.0555  31.4928   0.00   0.00   0.00
  8624.92500  -1.010  30.0554  31.4926   0.00   0.00   0.00
  9173.26700  -0.820  30.2362  31.5874   0.00   0.00   0.00
  9323.89500  -0.120  20.5525  21.8819   0.00   0.00   0.00
  9329.01900  -0.080  30.2362  31.5648   0.00   0.00   0.00
  9329.19300  -0.180  30.2362  31.5648   0.00   0.00   0.00
  9374.89500  -0.490  25.3341  26.6562   0.00   0.00   0.00
  9723.00200  -3.000  28.5499  29.8247   0.00   0.00   0.00
  9723.87100  -2.590  28.5500  29.8247   0.00   0.00   0.00
  9799.90800   0.230  25.3341  26.5989   9.25   0.00   0.00
  9916.00700  -2.430  29.7918  31.0418   0.00   0.00   0.00
  9950.56100  -2.520  28.5499  29.7955   0.00   0.00   0.00
  9951.47300  -1.000  28.5500  29.7955   0.00   0.00   0.00
  9953.49300   0.090  28.5502  29.7955   0.00   0.00   0.00
  9980.71100  -0.970  28.5499  29.7918   0.00   0.00   0.00
  9981.62800  -0.090  28.5500  29.7918   0.00   0.00   0.00
 10002.68100  -0.230  28.5499  29.7890   0.00   0.00   0.00
 10103.05900  -0.660  30.3605  31.5874   0.00   0.00   0.00
 10166.64600  -0.360  30.3682  31.5874   0.00   0.00   0.00
 10184.19100  -0.390  29.8247  31.0418   0.00   0.00   0.00
 10509.93500  -0.210  29.7890  30.9684   0.00   0.00   0.00
 10525.53700  -2.950  20.5525  21.7301   0.00   0.00   0.00
 10534.05500  -0.050  29.7918  30.9684   0.00   0.00   0.00
 10534.30000  -0.950  29.7918  30.9684   0.00   0.00   0.00
 10567.53800   0.140  29.7955  30.9685   0.00   0.00   0.00
 10567.85100  -0.920  29.7955  30.9684   0.00   0.00   0.00
 10568.09700  -2.470  29.7955  30.9684   0.00   0.00   0.00
 10837.22300  -2.110  29.8247  30.9684   0.00   0.00   0.00
 10837.48000  -3.010  29.8247  30.9684   0.00   0.00   0.00
 10946.87000  -0.780  30.3605  31.4928   0.00   0.00   0.00
 10949.26800  -1.260  30.3605  31.4926   0.00   0.00   0.00
 11018.35500  -0.970  30.3676  31.4926   0.00   0.00   0.00
 11021.56200  -1.100  30.3682  31.4928   0.00   0.00   0.00
 11023.99300  -1.570  30.3682  31.4926   0.00   0.00   0.00
 11029.42900  -0.340  30.3694  31.4932   0.00   0.00   0.00
 11033.66500  -1.090  30.3694  31.4928   0.00   0.00   0.00
 11036.10200  -2.270  30.3694  31.4926   0.00   0.00   0.00
 11220.93900  -3.940  30.8853  31.9899   0.00   0.00   0.00
 11335.56200  -0.270  25.5628  26.6563   0.00   0.00   0.00
 11336.60300   0.120  25.5628  26.6562   0.00   0.00   0.00
 11343.52300   0.430  25.5628  26.6555   0.00   0.00   0.00
 11441.26500  -0.360  30.8840  31.9674   0.00   0.00   0.00
 11454.89900  -0.190  30.8853  31.9674   0.00   0.00   0.00
 11454.89900  -1.100  30.8853  31.9674   0.00   0.00   0.00
 11477.57200  -0.020  30.8874  31.9674   0.00   0.00   0.00
 11477.57200  -1.090  30.8874  31.9674   0.00   0.00   0.00
 11477.57200  -2.630  30.8874  31.9674   0.00   0.00   0.00
 11964.04600  -0.560  25.5628  26.5989   0.00   0.00   0.00
 12154.31500  -4.170  30.0555  31.0753   0.00   0.00   0.00
 12198.45000  -1.910  30.9738  31.9899   0.00   0.00   0.00
 12198.58400  -1.810  30.9738  31.9899   0.00   0.00   0.00
 12266.11600  -0.410  29.0607  30.0712   0.00   0.00   0.00
 12327.76700  -0.110  29.0657  30.0712   0.00   0.00   0.00
 12335.17500   0.310  30.9737  31.9786   0.00   0.00   0.00
 12335.98200   0.410  30.9738  31.9786   0.00   0.00   0.00
 12335.98200  -1.240  30.9738  31.9786   0.00   0.00   0.00
 12335.98200  -3.230  30.9738  31.9786   0.00   0.00   0.00
 12336.11900   0.410  30.9738  31.9786   0.00   0.00   0.00
 12336.11900  -1.340  30.9738  31.9786   0.00   0.00   0.00
 12336.11900  -4.180  30.9738  31.9786   0.00   0.00   0.00
 12337.62600   0.490  30.9739  31.9786   0.00   0.00   0.00
 12337.62600  -1.230  30.9739  31.9786   0.00   0.00   0.00
 12337.62600  -1.340  30.9739  31.9786   0.00   0.00   0.00
 12337.62600  -2.980  30.9739  31.9786   0.00   0.00   0.00
 12374.20000   0.100  30.9684  31.9701   0.00   0.00   0.00
 12374.53700  -0.020  30.9684  31.9701   0.00   0.00   0.00
 12374.53700  -0.160  30.9684  31.9701   0.00   0.00   0.00
 12374.53700  -0.960  30.9684  31.9701   0.00   0.00   0.00
 12374.96600   0.330  30.9685  31.9701   0.00   0.00   0.00
 12374.96600  -1.190  30.9685  31.9701   0.00   0.00   0.00
 12374.96600  -1.330  30.9685  31.9701   0.00   0.00   0.00
 12374.96600  -2.760  30.9685  31.9701   0.00   0.00   0.00
 12474.62600  -1.320  30.9737  31.9674   0.00   0.00   0.00
 12474.62600  -2.380  30.9737  31.9674   0.00   0.00   0.00
 12474.62600  -4.180  30.9737  31.9674   0.00   0.00   0.00
 12475.45100  -1.460  30.9738  31.9674   0.00   0.00   0.00
 12475.45100  -2.630  30.9738  31.9674   0.00   0.00   0.00
 12475.59100  -1.560  30.9738  31.9674   0.00   0.00   0.00
 12475.59100  -2.730  30.9738  31.9674   0.00   0.00   0.00
 12477.13200  -1.090  30.9739  31.9674   0.00   0.00   0.00
 12496.23700   0.500  24.9954  25.9873   0.00   0.00   0.00
 12497.05000   0.430  30.9886  31.9804   0.00   0.00   0.00
 12497.05000   0.510  30.9886  31.9804   0.00   0.00   0.00
 12497.05000   0.510  30.9886  31.9804   0.00   0.00   0.00
 12497.05000   0.580  30.9886  31.9804   0.00   0.00   0.00
 12497.05000  -1.290  30.9886  31.9804   0.00   0.00   0.00
 12497.05000  -1.300  30.9886  31.9804   0.00   0.00   0.00
 12497.05000  -1.390  30.9886  31.9804   0.00   0.00   0.00
 12497.05000  -1.400  30.9886  31.9804   0.00   0.00   0.00
 12497.05000  -2.950  30.9886  31.9804   0.00   0.00   0.00
 12497.05000  -3.190  30.9886  31.9804   0.00   0.00   0.00
 12497.05000  -4.150  30.9886  31.9804   0.00   0.00   0.00
 12534.48300   0.400  30.9922  31.9811   0.00   0.00   0.00
 12534.48300   0.470  30.9922  31.9811   0.00   0.00   0.00
 12534.48300   0.470  30.9922  31.9811   0.00   0.00   0.00
 12534.48300   0.530  30.9922  31.9811   0.00   0.00   0.00
 12534.48300  -1.470  30.9922  31.9811   0.00   0.00   0.00
 12534.48300  -1.480  30.9922  31.9811   0.00   0.00   0.00
 12534.48300  -1.550  30.9922  31.9811   0.00   0.00   0.00
 12534.48300  -1.560  30.9922  31.9811   0.00   0.00   0.00
 12534.48300  -3.290  30.9922  31.9811   0.00   0.00   0.00
 12534.48300  -3.500  30.9922  31.9811   0.00   0.00   0.00
 12534.48300  -4.590  30.9922  31.9811   0.00   0.00   0.00
 12557.72100   0.330  24.9953  25.9823   0.00   0.00   0.00
 12559.61500  -0.570  24.9954  25.9823   0.00   0.00   0.00
 12566.46600  -1.930  30.9922  31.9786   0.00   0.00   0.00
 12566.46600  -2.000  30.9922  31.9786   0.00   0.00   0.00
 12566.46600  -2.000  30.9922  31.9786   0.00   0.00   0.00
 12566.46600  -2.080  30.9922  31.9786   0.00   0.00   0.00
 12566.46600  -3.800  30.9922  31.9786   0.00   0.00   0.00
 12566.46600  -3.810  30.9922  31.9786   0.00   0.00   0.00
 12566.46600  -3.890  30.9922  31.9786   0.00   0.00   0.00
 12566.46600  -3.910  30.9922  31.9786   0.00   0.00   0.00
 12601.06000   0.160  24.9952  25.9789   0.00   0.00   0.00
 12601.93300  -0.570  24.9953  25.9789   0.00   0.00   0.00
 12603.84000  -2.120  24.9954  25.9789   0.00   0.00   0.00
 12628.69300  -1.320  30.9886  31.9701   0.00   0.00   0.00
 12628.69300  -1.400  30.9886  31.9701   0.00   0.00   0.00
 12628.69300  -1.400  30.9886  31.9701   0.00   0.00   0.00
 12628.69300  -1.500  30.9886  31.9701   0.00   0.00   0.00
 12628.69300  -3.020  30.9886  31.9701   0.00   0.00   0.00
 12628.69300  -3.040  30.9886  31.9701   0.00   0.00   0.00
 12628.69300  -3.150  30.9886  31.9701   0.00   0.00   0.00
 12628.69300  -3.160  30.9886  31.9701   0.00   0.00   0.00
 12628.69300  -4.500  30.9886  31.9701   0.00   0.00   0.00
 12628.69300  -4.780  30.9886  31.9701   0.00   0.00   0.00
 12667.01600  -1.870  30.0632  31.0418   0.00   0.00   0.00
 12667.67500  -1.770  30.0633  31.0418   0.00   0.00   0.00
 12887.29200  -0.050  29.0607  30.0225   0.00   0.00   0.00
 12933.02300  -0.350  29.0641  30.0225   0.00   0.00   0.00
 12955.36300  -0.360  29.0657  30.0225   0.00   0.00   0.00
 12978.54000   0.340  29.0674  30.0225   0.00   0.00   0.00
 13083.50900  -0.830  30.9684  31.9158   0.00   0.00   0.00
 13083.50900  -1.560  30.9684  31.9158   0.00   0.00   0.00
 13083.50900  -3.110  30.9684  31.9158   0.00   0.00   0.00
 13083.88600  -0.660  30.9684  31.9158   0.00   0.00   0.00
 13083.88600  -1.560  30.9684  31.9158   0.00   0.00   0.00
 13084.36400  -0.500  30.9685  31.9158   0.00   0.00   0.00
 13352.15600   0.030  31.0418  31.9701   0.00   0.00   0.00
 13352.15600  -0.110  31.0418  31.9701   0.00   0.00   0.00
 13361.25600  -0.700  31.0418  31.9695   0.00   0.00   0.00
 13394.64300   1.000  30.0632  30.9886   0.00   0.00   0.00
 13395.00200  -0.540  30.0632  30.9886   0.00   0.00   0.00
 13395.00200   1.100  30.0632  30.9886   0.00   0.00   0.00
 13395.00200  -2.540  30.0632  30.9886   0.00   0.00   0.00
 13395.73800  -0.640  30.0633  30.9886   0.00   0.00   0.00
 13395.73800   1.100  30.0633  30.9886   0.00   0.00   0.00
 13395.73800  -3.460  30.0633  30.9886   0.00   0.00   0.00
 13396.70800  -0.540  30.0634  30.9886   0.00   0.00   0.00
 13396.70800  -0.650  30.0634  30.9886   0.00   0.00   0.00
 13396.70800   1.180  30.0634  30.9886   0.00   0.00   0.00
 13396.70800  -2.280  30.0634  30.9886   0.00   0.00   0.00
 13496.63200   0.970  30.0555  30.9739   0.00   0.00   0.00
 13497.65300   0.500  30.0555  30.9738   0.00   0.00   0.00
 13497.81700   0.600  30.0555  30.9738   0.00   0.00   0.00
 13498.07200   0.740  30.0554  30.9737   0.00   0.00   0.00
 13498.43700  -0.680  30.0555  30.9738   0.00   0.00   0.00
 13498.60100  -0.580  30.0555  30.9738   0.00   0.00   0.00
 13498.78300  -0.320  30.0555  30.9737   0.00   0.00   0.00
 13499.56700  -2.120  30.0555  30.9737   0.00   0.00   0.00
 13552.27100   0.090  31.0753  31.9899   0.00   0.00   0.00
 13581.41500  -1.390  28.1548  29.0674   0.00   0.00   0.00
 13586.99000  -0.210  28.1551  29.0674   0.00   0.00   0.00
 13595.32300   0.530  28.1557  29.0674   0.00   0.00   0.00
 13606.88800  -0.690  28.1548  29.0657   0.00   0.00   0.00
 13612.48300  -0.220  28.1551  29.0657   0.00   0.00   0.00
 13631.62000  -0.090  28.1548  29.0641   0.00   0.00   0.00
 13644.21500  -0.470  30.0838  30.9922   0.00   0.00   0.00
 13644.21500  -0.470  30.0838  30.9922   0.00   0.00   0.00
 13644.21500  -0.560  30.0838  30.9922   0.00   0.00   0.00
 13644.21500  -0.570  30.0838  30.9922   0.00   0.00   0.00
 13644.21500   1.250  30.0838  30.9922   0.00   0.00   0.00
 13644.21500   1.330  30.0838  30.9922   0.00   0.00   0.00
 13644.21500   1.340  30.0838  30.9922   0.00   0.00   0.00
 13644.21500   1.400  30.0838  30.9922   0.00   0.00   0.00
 13644.21500  -2.120  30.0838  30.9922   0.00   0.00   0.00
 13644.21500  -2.370  30.0838  30.9922   0.00   0.00   0.00
 13644.21500  -3.330  30.0838  30.9922   0.00   0.00   0.00
 13682.79600  -0.390  28.1548  29.0607   0.00   0.00   0.00
 13688.45400   0.090  28.1551  29.0607   0.00   0.00   0.00
 13692.41000  -3.700  30.0632  30.9685   0.00   0.00   0.00
 13692.78500  -2.160  30.0632  30.9685   0.00   0.00   0.00
 13692.93500  -1.900  30.0632  30.9684   0.00   0.00   0.00
 13693.31000  -0.980  30.0632  30.9684   0.00   0.00   0.00
 13693.34800  -0.850  30.0632  30.9684   0.00   0.00   0.00
 13693.55400  -2.260  30.0633  30.9685   0.00   0.00   0.00
 13694.07900  -1.080  30.0633  30.9684   0.00   0.00   0.00
 13694.56700  -0.610  30.0634  30.9685   0.00   0.00   0.00
 13895.03100  -4.400  31.0753  31.9674   0.00   0.00   0.00
 13924.64300  -0.960  30.0838  30.9739   0.00   0.00   0.00
 13924.64300  -2.680  30.0838  30.9739   0.00   0.00   0.00
 13924.64300  -2.790  30.0838  30.9739   0.00   0.00   0.00
 13924.64300  -4.430  30.0838  30.9739   0.00   0.00   0.00
 13926.56300  -1.040  30.0838  30.9738   0.00   0.00   0.00
 13926.56300  -2.790  30.0838  30.9738   0.00   0.00   0.00
 13926.73800  -1.040  30.0838  30.9738   0.00   0.00   0.00
 13926.73800  -2.690  30.0838  30.9738   0.00   0.00   0.00
 13926.73800  -4.680  30.0838  30.9738   0.00   0.00   0.00
 13927.76600  -1.140  30.0838  30.9737   0.00   0.00   0.00
 14040.00100  -0.590  25.7734  26.6562   0.00   0.00   0.00
 14751.56400  -4.640  28.2272  29.0674   0.00   0.00   0.00
 14771.26800  -0.430  30.2362  31.0753   0.00   0.00   0.00
 14781.62000   0.230  28.2272  29.0657   0.00   0.00   0.00
 14871.24400  -0.080  28.2272  29.0607   0.00   0.00   0.00
 14898.48000  -2.590  30.0554  30.8874   0.00   0.00   0.00
 14899.34600  -1.050  30.0555  30.8874   0.00   0.00   0.00
 14900.30200   0.010  30.0555  30.8874   0.00   0.00   0.00
 14936.85600  -1.040  30.0554  30.8853   0.00   0.00   0.00
 14937.72700  -0.130  30.0555  30.8853   0.00   0.00   0.00
 14960.10300  -0.310  30.0554  30.8840   0.00   0.00   0.00
 15015.24200   0.030  25.7734  26.5989   0.00   0.00   0.00
 16223.72300   0.150  29.0607  29.8247   0.00   0.00   0.00
 16331.75100   0.610  29.0657  29.8247   0.00   0.00   0.00
 16368.59900  -1.890  29.0674  29.8247   0.00   0.00   0.00
 16803.71500   0.810  30.2362  30.9738   0.00   0.00   0.00
 16803.96900   0.710  30.2362  30.9738   0.00   0.00   0.00
 16954.17900   0.500  29.0607  29.7918   0.00   0.00   0.00
 17017.67200  -0.040  29.0607  29.7890   0.00   0.00   0.00
 17024.01800   0.890  29.0674  29.7955   0.00   0.00   0.00
 17072.19000  -0.010  29.0657  29.7918   0.00   0.00   0.00
 17097.50400   0.260  29.0641  29.7890   0.00   0.00   0.00
 17112.45900   0.130  29.0674  29.7918   0.00   0.00   0.00
 17136.57100  -0.340  29.0657  29.7890   0.00   0.00   0.00
 17177.14400  -1.040  29.0674  29.7890   0.00   0.00   0.00
 17341.07700   0.070  30.3605  31.0753   0.00   0.00   0.00
 17381.96100  -3.250  30.8853  31.5984   0.00   0.00   0.00
 17529.26000   0.390  30.3682  31.0753   0.00   0.00   0.00
 17559.89500  -3.770  30.3694  31.0753   0.00   0.00   0.00
 18298.18900   0.120  30.8840  31.5614   0.00   0.00   0.00
 18332.31300   0.290  30.8853  31.5614   0.00   0.00   0.00
 18333.08600  -0.620  30.8853  31.5614   0.00   0.00   0.00
 18389.16600   0.460  30.8874  31.5615   0.00   0.00   0.00
 18390.45100  -0.600  30.8874  31.5614   0.00   0.00   0.00
 18391.23000  -2.150  30.8874  31.5614   0.00   0.00   0.00
 19095.52400  -4.690  30.2362  30.8853   0.00   0.00   0.00
 19120.57800  -2.580  25.3341  25.9823   0.00   0.00   0.00
 19845.42300  -1.310  30.9738  31.5984   0.00   0.00   0.00
 19845.77700  -1.200  30.9738  31.5984   0.00   0.00   0.00
 20026.38400  -4.820  30.9684  31.5874   0.00   0.00   0.00
 20051.52800  -0.320  30.3605  30.9787   0.00   0.00   0.00
 20303.56300  -0.030  30.3682  30.9787   0.00   0.00   0.00
 20424.60300   0.010  30.3605  30.9674   0.00   0.00   0.00
 20582.88400   0.960  30.9737  31.5759   0.00   0.00   0.00
 20585.13000  -0.580  30.9738  31.5759   0.00   0.00   0.00
 20585.13000   1.060  30.9738  31.5759   0.00   0.00   0.00
 20585.13000  -2.580  30.9738  31.5759   0.00   0.00   0.00
 20585.51100  -0.680  30.9738  31.5759   0.00   0.00   0.00
 20585.51100   1.060  30.9738  31.5759   0.00   0.00   0.00
 20585.51100  -3.520  30.9738  31.5759   0.00   0.00   0.00
 20589.70900  -0.580  30.9739  31.5759   0.00   0.00   0.00
 20589.70900  -0.690  30.9739  31.5759   0.00   0.00   0.00
 20589.70900   1.140  30.9739  31.5759   0.00   0.00   0.00
 20589.70900  -2.320  30.9739  31.5759   0.00   0.00   0.00
 20666.32200  -0.290  30.3676  30.9674   0.00   0.00   0.00
 20686.16400  -0.290  30.3682  30.9674   0.00   0.00   0.00
 20728.84100   0.410  30.3694  30.9674   0.00   0.00   0.00
 20745.57300   0.540  28.4699  29.0674   0.00   0.00   0.00
 20781.02100   0.950  30.9685  31.5649   0.00   0.00   0.00
 20782.96500   0.720  30.9684  31.5648   0.00   0.00   0.00
 20783.91600  -0.340  30.9684  31.5648   0.00   0.00   0.00
 20783.91600   0.480  30.9684  31.5648   0.00   0.00   0.00
 20784.78000   0.590  30.9684  31.5648   0.00   0.00   0.00
 20785.12600  -0.690  30.9685  31.5648   0.00   0.00   0.00
 20785.12600  -2.140  30.9685  31.5648   0.00   0.00   0.00
 20785.98900  -0.590  30.9685  31.5648   0.00   0.00   0.00
 20805.06600  -0.160  28.4699  29.0657   0.00   0.00   0.00
 20862.94100  -0.160  28.4699  29.0641   0.00   0.00   0.00
 20933.71200   0.440  27.9620  28.5541   0.00   0.00   0.00
 20935.24700  -0.050  27.9620  28.5541   0.00   0.00   0.00
 20937.17600  -1.980  27.9620  28.5540   0.00   0.00   0.00
 20983.05400   0.140  28.4699  29.0607   0.00   0.00   0.00
 21012.82400  -0.510  30.9886  31.5785   0.00   0.00   0.00
 21012.82400  -0.520  30.9886  31.5785   0.00   0.00   0.00
 21012.82400  -0.610  30.9886  31.5785   0.00   0.00   0.00
 21012.82400  -0.620  30.9886  31.5785   0.00   0.00   0.00
 21012.82400   1.210  30.9886  31.5785   0.00   0.00   0.00
 21012.82400   1.290  30.9886  31.5785   0.00   0.00   0.00
 21012.82400   1.290  30.9886  31.5785   0.00   0.00   0.00
 21012.82400   1.360  30.9886  31.5785   0.00   0.00   0.00
 21012.82400  -2.170  30.9886  31.5785   0.00   0.00   0.00
 21012.82400  -2.420  30.9886  31.5785   0.00   0.00   0.00
 21012.82400  -3.380  30.9886  31.5785   0.00   0.00   0.00
 21089.86600  -3.450  30.9737  31.5615   0.00   0.00   0.00
 21091.55600  -1.650  30.9737  31.5614   0.00   0.00   0.00
 21092.22400  -1.910  30.9738  31.5615   0.00   0.00   0.00
 21092.58000  -0.590  30.9737  31.5614   0.00   0.00   0.00
 21092.62500  -2.010  30.9738  31.5615   0.00   0.00   0.00
 21093.91600  -0.730  30.9738  31.5614   0.00   0.00   0.00
 21094.31500  -0.830  30.9738  31.5614   0.00   0.00   0.00
 21097.03200  -0.360  30.9739  31.5615   0.00   0.00   0.00
 21109.99500  -0.470  30.9922  31.5794   0.00   0.00   0.00
 21109.99500  -0.480  30.9922  31.5794   0.00   0.00   0.00
 21109.99500  -0.550  30.9922  31.5794   0.00   0.00   0.00
 21109.99500  -0.560  30.9922  31.5794   0.00   0.00   0.00
 21109.99500   1.410  30.9922  31.5794   0.00   0.00   0.00
 21109.99500   1.480  30.9922  31.5794   0.00   0.00   0.00
 21109.99500   1.480  30.9922  31.5794   0.00   0.00   0.00
 21109.99500   1.540  30.9922  31.5794   0.00   0.00   0.00
 21109.99500  -2.280  30.9922  31.5794   0.00   0.00   0.00
 21109.99500  -2.500  30.9922  31.5794   0.00   0.00   0.00
 21109.99500  -3.590  30.9922  31.5794   0.00   0.00   0.00
 21235.05200  -1.050  30.9922  31.5759   0.00   0.00   0.00
 21235.05200  -1.120  30.9922  31.5759   0.00   0.00   0.00
 21235.05200  -1.120  30.9922  31.5759   0.00   0.00   0.00
 21235.05200  -1.200  30.9922  31.5759   0.00   0.00   0.00
 21235.05200  -2.920  30.9922  31.5759   0.00   0.00   0.00
 21235.05200  -2.930  30.9922  31.5759   0.00   0.00   0.00
 21235.05200  -3.010  30.9922  31.5759   0.00   0.00   0.00
 21235.05200  -3.030  30.9922  31.5759   0.00   0.00   0.00
 21235.05200  -4.580  30.9922  31.5759   0.00   0.00   0.00
 21235.05200  -4.820  30.9922  31.5759   0.00   0.00   0.00
 21356.99100  -1.280  29.7890  30.3694   0.00   0.00   0.00
 21402.48400  -0.580  29.7890  30.3682   0.00   0.00   0.00
 21423.76500   0.020  29.7890  30.3676   0.00   0.00   0.00
 21457.83800  -0.110  29.7918  30.3694   0.00   0.00   0.00
 21503.76300  -0.270  29.7918  30.3682   0.00   0.00   0.00
 21506.63100  -0.520  30.9886  31.5649   0.00   0.00   0.00
 21506.63100  -2.240  30.9886  31.5649   0.00   0.00   0.00
 21506.63100  -2.350  30.9886  31.5649   0.00   0.00   0.00
 21506.63100  -3.990  30.9886  31.5649   0.00   0.00   0.00
 21511.02700  -0.600  30.9886  31.5648   0.00   0.00   0.00
 21511.02700  -0.700  30.9886  31.5648   0.00   0.00   0.00
 21511.02700  -2.350  30.9886  31.5648   0.00   0.00   0.00
 21511.95300  -0.610  30.9886  31.5648   0.00   0.00   0.00
 21511.95300  -2.250  30.9886  31.5648   0.00   0.00   0.00
 21511.95300  -4.270  30.9886  31.5648   0.00   0.00   0.00
 21598.53700   0.650  29.7955  30.3694   0.00   0.00   0.00
 21689.86600  -0.290  29.7890  30.3605   0.00   0.00   0.00
 21793.89000   0.250  29.7918  30.3605   0.00   0.00   0.00
 22718.33500  -0.130  31.0418  31.5874   0.00   0.00   0.00
 22754.48000  -2.180  29.8247  30.3694   0.00   0.00   0.00
 22806.12800   0.390  29.8247  30.3682   0.00   0.00   0.00
 23132.73000  -0.060  29.8247  30.3605   0.00   0.00   0.00
 23617.46200  -2.360  30.9684  31.4932   0.00   0.00   0.00
 23618.69000  -0.810  30.9684  31.4932   0.00   0.00   0.00
 23620.25300   0.250  30.9685  31.4932   0.00   0.00   0.00
 23620.64400   0.510  30.3605  30.8853   0.00   0.00   0.00
 23636.89500  -0.810  30.9684  31.4928   0.00   0.00   0.00
 23638.12500   0.090  30.9684  31.4928   0.00   0.00   0.00
 23648.07700  -0.080  30.9684  31.4926   0.00   0.00   0.00
 23678.82800   0.020  30.3605  30.8840   0.00   0.00   0.00
 23696.56300   0.770  31.0753  31.5984   0.00   0.00   0.00
 23698.19200   0.770  31.0418  31.5648   0.00   0.00   0.00
 23699.31600   0.670  31.0418  31.5648   0.00   0.00   0.00
 23929.34100   0.940  30.3694  30.8874   0.00   0.00   0.00
 23971.16900   0.190  30.3682  30.8853   0.00   0.00   0.00
 24004.32200   0.320  30.3676  30.8840   0.00   0.00   0.00
 24028.49600   0.190  30.3694  30.8853   0.00   0.00   0.00
 24031.09600  -0.280  30.3682  30.8840   0.00   0.00   0.00
 24088.70900  -0.980  30.3694  30.8840   0.00   0.00   0.00
 24599.95000   0.100  28.5619  29.0657   0.00   0.00   0.00
 24849.18000  -0.210  28.5619  29.0607   0.00   0.00   0.00
 24934.77100  -4.210  31.4928  31.9899   0.00   0.00   0.00
 25498.62700  -4.200  31.0753  31.5614   0.00   0.00   0.00
 25500.12400  -4.870  31.0753  31.5614   0.00   0.00   0.00
 26106.62900   0.020  31.4926  31.9674   0.00   0.00   0.00
 26120.27100   0.190  31.4928  31.9674   0.00   0.00   0.00
 26120.27100  -0.720  31.4928  31.9674   0.00   0.00   0.00
 26144.04200   0.350  31.4932  31.9674   0.00   0.00   0.00
 26144.04200  -0.720  31.4932  31.9674   0.00   0.00   0.00
 26144.04200  -2.260  31.4932  31.9674   0.00   0.00   0.00
 27892.46400  -1.140  29.7918  30.2362   0.00   0.00   0.00
 29157.02500  -1.010  31.5648  31.9899   0.00   0.00   0.00
 29158.72500  -0.910  31.5648  31.9899   0.00   0.00   0.00
 29955.27400  -0.610  31.5648  31.9786   0.00   0.00   0.00
 29955.27400   1.030  31.5648  31.9786   0.00   0.00   0.00
 29955.27400  -2.640  31.5648  31.9786   0.00   0.00   0.00
 29957.06900  -0.710  31.5648  31.9786   0.00   0.00   0.00
 29957.06900   0.930  31.5648  31.9786   0.00   0.00   0.00
 29957.06900   1.040  31.5648  31.9786   0.00   0.00   0.00
 29957.06900  -3.460  31.5648  31.9786   0.00   0.00   0.00
 29965.59900  -0.610  31.5649  31.9786   0.00   0.00   0.00
 29965.59900  -0.710  31.5649  31.9786   0.00   0.00   0.00
 29965.59900   1.120  31.5649  31.9786   0.00   0.00   0.00
 29965.59900  -2.350  31.5649  31.9786   0.00   0.00   0.00
 30123.79100   0.870  29.8247  30.2362   0.00   0.00   0.00
 30326.28800   0.710  31.5614  31.9701   0.00   0.00   0.00
 30328.40300  -0.340  31.5614  31.9701   0.00   0.00   0.00
 30328.40300   0.450  31.5614  31.9701   0.00   0.00   0.00
 30328.40300   0.600  31.5614  31.9701   0.00   0.00   0.00
 30331.90000  -0.580  31.5615  31.9701   0.00   0.00   0.00
 30331.90000  -0.720  31.5615  31.9701   0.00   0.00   0.00
 30331.90000   0.950  31.5615  31.9701   0.00   0.00   0.00
 30331.90000  -2.140  31.5615  31.9701   0.00   0.00   0.00
 30642.13700  -0.540  31.5759  31.9804   0.00   0.00   0.00
 30642.13700  -0.550  31.5759  31.9804   0.00   0.00   0.00
 30642.13700  -0.640  31.5759  31.9804   0.00   0.00   0.00
 30642.13700  -0.650  31.5759  31.9804   0.00   0.00   0.00
 30642.13700   1.180  31.5759  31.9804   0.00   0.00   0.00
 30642.13700   1.260  31.5759  31.9804   0.00   0.00   0.00
 30642.13700   1.260  31.5759  31.9804   0.00   0.00   0.00
 30642.13700   1.320  31.5759  31.9804   0.00   0.00   0.00
 30642.13700  -2.200  31.5759  31.9804   0.00   0.00   0.00
 30642.13700  -2.450  31.5759  31.9804   0.00   0.00   0.00
 30642.13700  -3.410  31.5759  31.9804   0.00   0.00   0.00
 30786.32200  -0.510  31.5785  31.9811   0.00   0.00   0.00
 30786.32200  -0.520  31.5785  31.9811   0.00   0.00   0.00
 30786.32200  -0.590  31.5785  31.9811   0.00   0.00   0.00
 30786.32200  -0.600  31.5785  31.9811   0.00   0.00   0.00
 30786.32200   1.370  31.5785  31.9811   0.00   0.00   0.00
 30786.32200   1.430  31.5785  31.9811   0.00   0.00   0.00
 30786.32200   1.440  31.5785  31.9811   0.00   0.00   0.00
 30786.32200   1.490  31.5785  31.9811   0.00   0.00   0.00
 30786.32200  -2.320  31.5785  31.9811   0.00   0.00   0.00
 30786.32200  -2.540  31.5785  31.9811   0.00   0.00   0.00
 30786.32200  -3.630  31.5785  31.9811   0.00   0.00   0.00
 30791.15700  -0.540  31.5648  31.9674   0.00   0.00   0.00
 30791.15700  -1.720  31.5648  31.9674   0.00   0.00   0.00
 30792.86500   0.610  31.5874  31.9899   0.00   0.00   0.00
 30793.05500  -0.410  31.5648  31.9674   0.00   0.00   0.00
 30793.05500  -0.640  31.5648  31.9674   0.00   0.00   0.00
 30793.05500  -1.470  31.5648  31.9674   0.00   0.00   0.00
 30793.05500  -1.820  31.5648  31.9674   0.00   0.00   0.00
 30793.05500  -3.270  31.5648  31.9674   0.00   0.00   0.00
 30802.06700  -0.170  31.5649  31.9674   0.00   0.00   0.00
 30835.22400  -0.470  31.5794  31.9814   0.00   0.00   0.00
 30835.22400  -0.470  31.5794  31.9814   0.00   0.00   0.00
 30835.22400  -0.540  31.5794  31.9814   0.00   0.00   0.00
 30835.22400  -0.540  31.5794  31.9814   0.00   0.00   0.00
 30835.22400   1.540  31.5794  31.9814   0.00   0.00   0.00
 30835.22400   1.600  31.5794  31.9814   0.00   0.00   0.00
 30835.22400   1.600  31.5794  31.9814   0.00   0.00   0.00
 30835.22400   1.650  31.5794  31.9814   0.00   0.00   0.00
 30835.22400  -2.420  31.5794  31.9814   0.00   0.00   0.00
 30835.22400  -2.610  31.5794  31.9814   0.00   0.00   0.00
 30835.22400  -3.820  31.5794  31.9814   0.00   0.00   0.00
 30906.33800  -1.070  31.5794  31.9804   0.00   0.00   0.00
 30906.33800  -1.130  31.5794  31.9804   0.00   0.00   0.00
 30906.33800  -1.130  31.5794  31.9804   0.00   0.00   0.00
 30906.33800  -1.200  31.5794  31.9804   0.00   0.00   0.00
 30906.33800  -3.070  31.5794  31.9804   0.00   0.00   0.00
 30906.33800  -3.080  31.5794  31.9804   0.00   0.00   0.00
 30906.33800  -3.150  31.5794  31.9804   0.00   0.00   0.00
 30906.33800  -3.160  31.5794  31.9804   0.00   0.00   0.00
 30906.33800  -4.890  31.5794  31.9804   0.00   0.00   0.00
 30953.41800  -2.650  24.9953  25.3957   0.00   0.00   0.00
 30964.92300  -3.550  24.9954  25.3957   0.00   0.00   0.00
 30979.98800  -0.610  31.5785  31.9786   0.00   0.00   0.00
 30979.98800  -0.680  31.5785  31.9786   0.00   0.00   0.00
 30979.98800  -0.680  31.5785  31.9786   0.00   0.00   0.00
 30979.98800  -0.760  31.5785  31.9786   0.00   0.00   0.00
 30979.98800  -2.480  31.5785  31.9786   0.00   0.00   0.00
 30979.98800  -2.490  31.5785  31.9786   0.00   0.00   0.00
 30979.98800  -2.580  31.5785  31.9786   0.00   0.00   0.00
 30979.98800  -2.590  31.5785  31.9786   0.00   0.00   0.00
 30979.98800  -4.140  31.5785  31.9786   0.00   0.00   0.00
 30979.98800  -4.380  31.5785  31.9786   0.00   0.00   0.00
 31373.73900   0.250  28.1548  28.5499   0.00   0.00   0.00
 31394.42800   0.400  28.1551  28.5500   0.00   0.00   0.00
 31403.50200  -0.480  28.1551  28.5499   0.00   0.00   0.00
 31418.79800   0.580  28.1557  28.5502   0.00   0.00   0.00
 31438.95500  -0.510  28.1557  28.5500   0.00   0.00   0.00
 31445.87700  -0.260  31.5759  31.9701   0.00   0.00   0.00
 31445.87700  -0.340  31.5759  31.9701   0.00   0.00   0.00
 31445.87700  -0.340  31.5759  31.9701   0.00   0.00   0.00
 31445.87700  -0.440  31.5759  31.9701   0.00   0.00   0.00
 31445.87700  -1.960  31.5759  31.9701   0.00   0.00   0.00
 31445.87700  -1.980  31.5759  31.9701   0.00   0.00   0.00
 31445.87700  -2.080  31.5759  31.9701   0.00   0.00   0.00
 31445.87700  -2.100  31.5759  31.9701   0.00   0.00   0.00
 31445.87700  -3.440  31.5759  31.9701   0.00   0.00   0.00
 31445.87700  -3.720  31.5759  31.9701   0.00   0.00   0.00
 31445.87700  -4.530  31.5759  31.9701   0.00   0.00   0.00
 31448.05300  -2.030  28.1557  28.5499   0.00   0.00   0.00
 32621.25700  -4.860  31.5874  31.9674   0.00   0.00   0.00
 33344.47400   0.620  31.5984  31.9701   0.00   0.00   0.00
 33344.47400   0.760  31.5984  31.9701   0.00   0.00   0.00
 33401.29000   0.070  31.5984  31.9695   0.00   0.00   0.00
 34972.98800   0.070  31.5614  31.9158   0.00   0.00   0.00
 34972.98800  -0.670  31.5614  31.9158   0.00   0.00   0.00
 34972.98800  -2.210  31.5614  31.9158   0.00   0.00   0.00
 34975.80200   0.240  31.5614  31.9158   0.00   0.00   0.00
 34975.80200  -0.670  31.5614  31.9158   0.00   0.00   0.00
 34980.45300   0.400  31.5615  31.9158   0.00   0.00   0.00
 35727.38800   0.610  30.0225  30.3694   0.00   0.00   0.00
 35854.88300  -0.090  30.0225  30.3682   0.00   0.00   0.00
 35914.64900  -0.090  30.0225  30.3676   0.00   0.00   0.00
 36668.80700   0.200  30.0225  30.3605   0.00   0.00   0.00
 38398.91800  -1.130  28.2272  28.5500   0.00   0.00   0.00
 38412.49300  -4.970  28.2272  28.5499   0.00   0.00   0.00
 41735.12600   0.180  30.0712  30.3682   0.00   0.00   0.00
 42842.03300  -0.130  30.0712  30.3605   0.00   0.00   0.00
 46529.24700   0.450  29.7890  30.0554   0.00   0.00   0.00
 46743.31900   0.060  27.9620  28.2272   0.00   0.00   0.00
 47001.98000   0.610  29.7918  30.0555   0.00   0.00   0.00
 47010.60000  -0.290  29.7918  30.0554   0.00   0.00   0.00
 47672.58100   0.770  29.7955  30.0555   0.00   0.00   0.00
 47682.35900  -0.290  29.7955  30.0555   0.00   0.00   0.00
 47691.23000  -1.840  29.7955  30.0554   0.00   0.00   0.00
 53705.47500  -1.490  29.8247  30.0555   0.00   0.00   0.00
 53716.72900  -2.400  29.8247  30.0554   0.00   0.00   0.00
 63987.06100  -2.060  27.9620  28.1557   0.00   0.00   0.00
 64172.30000  -1.180  27.9620  28.1551   0.00   0.00   0.00
 71683.54900   0.040  30.0632  30.2362   0.00   0.00   0.00
 71704.62900   0.130  30.0633  30.2362   0.00   0.00   0.00
 79197.62400  -3.380  30.8853  31.0418   0.00   0.00   0.00
